
Integration time [ms]: 2000,000
Averaging Nr. [scans]: 4
Smoothing Nr. [pixels]: 0
Data measured with spectrometer [name]: 1804350U2
Wave   ;Sample   ;Dark     ;Reference;Scope Corrected for Dark
[nm]   ;[counts] ;[counts] ;[counts] 

 291,52; -337,104; -439,179;    0,000;102,07540
 291,69;  138,619;  129,036;    0,000; 9,58298
 291,86;  -98,969; -128,056;    0,000;29,08667
 292,03;  315,533;  296,814;    0,000;18,71853
 292,20; -122,725; -113,085;    0,000;-9,63943
 292,37;  280,448;  181,824;    0,000;98,62399
 292,53;   70,373;   44,834;    0,000;25,53916
 292,70;  -84,928;  -82,111;    0,000;-2,81694
 292,87; -257,400; -257,153;    0,000;-0,24708
 293,04; -133,248; -161,130;    0,000;27,88185
 293,21;  505,023;  569,929;    0,000;-64,90624
 293,38;  -57,354;   33,879;    0,000;-91,23212
 293,55;  -56,629;  -88,152;    0,000;31,52235
 293,71;   60,830;  -57,039;    0,000;117,86844
 293,88;   24,569;  -34,155;    0,000;58,72377
 294,05;  364,986;  370,725;    0,000;-5,73891
 294,22;   -9,106; -124,165;    0,000;115,05859
 294,39;  -97,170;  -48,039;    0,000;-49,13156
 294,56; -214,552; -106,234;    0,000;-108,31849
 294,73;  221,226;  180,840;    0,000;40,38632
 294,89; -265,787; -236,262;    0,000;-29,52516
 295,06; -336,864; -310,180;    0,000;-26,68431
 295,23; -283,947; -243,242;    0,000;-40,70452
 295,40;  328,698;  242,824;    0,000;85,87399
 295,57; -171,939; -153,285;    0,000;-18,65409
 295,74; -182,132; -224,253;    0,000;42,12059
 295,91;  166,721;  203,753;    0,000;-37,03225
 296,07;  425,437;  345,766;    0,000;79,67179
 296,24;  -87,719;  -74,114;    0,000;-13,60581
 296,41;   24,378;   52,748;    0,000;-28,36970
 296,58;  -30,006;  -17,260;    0,000;-12,74601
 296,75;  235,574;  289,759;    0,000;-54,18509
 296,92;  112,912;   17,793;    0,000;95,11874
 297,09;  105,288;   48,843;    0,000;56,44462
 297,25;  455,460;  468,695;    0,000;-13,23444
 297,42;  628,414;  580,779;    0,000;47,63555
 297,59; -187,374; -194,123;    0,000; 6,74845
 297,76; -244,957; -237,301;    0,000;-7,65671
 297,93;  136,958;  188,767;    0,000;-51,80878
 298,10;  117,621;   61,848;    0,000;55,77235
 298,26;  250,762;  206,755;    0,000;44,00661
 298,43;    2,780;  -39,171;    0,000;41,95172
 298,60;   77,855;   97,818;    0,000;-19,96346
 298,77;  515,125;  507,704;    0,000; 7,42102
 298,94;  -52,831; -154,250;    0,000;101,41917
 299,11; -116,228; -121,244;    0,000; 5,01633
 299,28;  114,870;   98,733;    0,000;16,13740
 299,44;   61,948;   68,824;    0,000;-6,87601
 299,61; -196,310; -135,191;    0,000;-61,11892
 299,78; -116,171; -171,154;    0,000;54,98349
 299,95;  120,265;   71,799;    0,000;48,46590
 300,12;  289,842;  284,774;    0,000; 5,06754
 300,29; -158,029; -121,247;    0,000;-36,78225
 300,45;  105,499;   59,769;    0,000;45,73009
 300,62;  118,216;  136,839;    0,000;-18,62339
 300,79;  533,272;  469,756;    0,000;63,51633
 300,96; -252,297; -251,205;    0,000;-1,09240
 301,13;  -91,493; -109,158;    0,000;17,66547
 301,30;  509,221;  488,753;    0,000;20,46775
 301,46; 1069,597;  981,804;    0,000;87,79363
 301,63; -112,883; -166,311;    0,000;53,42811
 301,80;  -69,469; -188,114;    0,000;118,64419
 301,97; -104,743;  -66,274;    0,000;-38,46948
 302,14;   44,512;   87,813;    0,000;-43,30091
 302,31;   45,314;   37,758;    0,000; 7,55520
 302,47;  -62,638;  -57,282;    0,000;-5,35551
 302,64;  220,138;  256,806;    0,000;-36,66750
 302,81;  162,742;   72,870;    0,000;89,87214
 302,98; -134,903; -263,196;    0,000;128,29363
 303,15;  -91,310; -117,249;    0,000;25,93860
 303,32;  375,239;  447,768;    0,000;-72,52963
 303,48;  197,654;  317,836;    0,000;-120,18169
 303,65;  -96,253; -181,217;    0,000;84,96328
 303,82;   -5,813;  -24,234;    0,000;18,42179
 303,99;  639,623;  607,776;    0,000;31,84668
 304,16;  185,832;  251,774;    0,000;-65,94218
 304,32;  219,417;  117,822;    0,000;101,59484
 304,49;  -92,287;  -79,204;    0,000;-13,08268
 304,66; -315,707; -261,127;    0,000;-54,57928
 304,83;  468,048;  445,844;    0,000;22,20434
 305,00;   98,368;   64,747;    0,000;33,62059
 305,17;    1,739;  -65,174;    0,000;66,91285
 305,33;  322,386;  286,820;    0,000;35,56569
 305,50;  768,767;  800,785;    0,000;-32,01729
 305,67; -100,792; -102,233;    0,000; 1,44122
 305,84;  -30,390;  -78,268;    0,000;47,87768
 306,01;  358,373;  371,718;    0,000;-13,34579
 306,17;  144,425;  108,837;    0,000;35,58774
 306,34; -169,140; -197,152;    0,000;28,01264
 306,51;   98,180;   18,866;    0,000;79,31384
 306,68;  195,072;  247,831;    0,000;-52,75942
 306,85;  279,963;  285,854;    0,000;-5,89020
 307,02;  -40,846;  -37,280;    0,000;-3,56664
 307,18;  -77,341; -149,193;    0,000;71,85193
 307,35;  103,780;  165,829;    0,000;-62,04828
 307,52;  105,860;   99,905;    0,000; 5,95511
 307,69;   53,120;  -44,209;    0,000;97,32987
 307,86;  -61,818;  -77,206;    0,000;15,38817
 308,02;  -14,016;  -36,203;    0,000;22,18675
 308,19;  255,646;  192,821;    0,000;62,82540
 308,36;   21,344;  -55,298;    0,000;76,64187
 308,53;    6,981;  -92,189;    0,000;99,16994
 308,70;  224,924;  261,721;    0,000;-36,79721
 308,86;  362,414;  423,779;    0,000;-61,36445
 309,03; -319,284; -225,161;    0,000;-94,12339
 309,20;   -5,725;   79,799;    0,000;-85,52438
 309,37;   42,100;   90,789;    0,000;-48,68956
 309,54;   21,311;   28,773;    0,000;-7,46161
 309,71; -249,320; -249,249;    0,000;-0,07112
 309,87; -180,995; -153,144;    0,000;-27,85134
 310,04;  247,545;  202,743;    0,000;44,80257
 310,21;  199,311;  118,773;    0,000;80,53839
 310,38; -150,929; -101,284;    0,000;-49,64437
 310,55;  181,097;  140,688;    0,000;40,40868
 310,71;  250,790;  313,714;    0,000;-62,92352
 310,88;  428,515;  510,799;    0,000;-82,28410
 311,05; -296,176; -358,183;    0,000;62,00739
 311,22; -257,346; -245,222;    0,000;-12,12417
 311,39;  -78,898;   76,775;    0,000;-155,67275
 311,55;  304,726;  260,898;    0,000;43,82880
 311,72; -110,230; -146,230;    0,000;35,99952
 311,89; -282,119; -255,209;    0,000;-26,91041
 312,06;  190,783;   83,814;    0,000;106,96853
 312,23;  299,636;  239,820;    0,000;59,81569
 312,39;  -60,694;  -39,257;    0,000;-21,43771
 312,56;  265,280;  232,713;    0,000;32,56676
 312,73;  372,287;  380,613;    0,000;-8,32529
 312,90;  290,179;  177,635;    0,000;112,54393
 313,06; -289,622; -179,252;    0,000;-110,36970
 313,23;   13,120;  -54,325;    0,000;67,44492
 313,40;  -43,816; -103,451;    0,000;59,63507
 313,57; -346,560; -424,133;    0,000;77,57356
 313,74; -180,444; -148,314;    0,000;-32,13019
 313,90;   -5,483;   19,727;    0,000;-25,20977
 314,07;  257,440;  313,751;    0,000;-56,31140
 314,24;  495,576;  541,687;    0,000;-46,11076
 314,41; -275,246; -301,317;    0,000;26,07123
 314,58;  103,932;  147,679;    0,000;-43,74678
 314,74;  289,058;  248,671;    0,000;40,38662
 314,91;  406,842;  340,717;    0,000;66,12506
 315,08; -189,694; -148,199;    0,000;-41,49523
 315,25;  -70,032; -149,175;    0,000;79,14342
 315,42;  229,180;  190,751;    0,000;38,42888
 315,58;  170,937;   55,708;    0,000;115,22931
 315,75;   21,435;   -1,220;    0,000;22,65498
 315,92;  -60,650; -102,211;    0,000;41,56044
 316,09;  270,319;  121,845;    0,000;148,47377
 316,25;  481,466;  340,724;    0,000;140,74165
 316,42; -196,145; -233,297;    0,000;37,15158
 316,59; -211,447; -237,184;    0,000;25,73796
 316,76;  491,945;  501,838;    0,000;-9,89282
 316,93;  217,182;  238,736;    0,000;-21,55431
 317,09; -144,962; -171,272;    0,000;26,30967
 317,26;  -81,712; -119,214;    0,000;37,50214
 317,43;  128,128;   59,748;    0,000;68,38030
 317,60;  224,001;  288,697;    0,000;-64,69558
 317,76;  -27,431;  -96,155;    0,000;68,72377
 317,93; -233,279; -282,305;    0,000;49,02527
 318,10; -114,669;  -67,342;    0,000;-47,32714
 318,27;  -73,555;  -66,162;    0,000;-7,39282
 318,44;  -48,418; -111,226;    0,000;62,80782
 318,60;  -45,109; -178,151;    0,000;133,04178
 318,77;  269,174;  337,721;    0,000;-68,54721
 318,94;  192,533;  193,814;    0,000;-1,28147
 319,11; -136,898; -220,283;    0,000;83,38477
 319,27;  275,100;  243,732;    0,000;31,36796
 319,44; -108,114; -146,180;    0,000;38,06569
 319,61;  820,649;  764,807;    0,000;55,84221
 319,78;  -29,710;  -44,286;    0,000;14,57648
 319,95; -324,083; -286,236;    0,000;-37,84764
 320,11;  595,589;  594,673;    0,000; 0,91577
 320,28;  369,863;  324,833;    0,000;45,02945
 320,45; -105,468;  -39,301;    0,000;-66,16643
 320,62; -402,343; -380,063;    0,000;-22,27992
 320,78;  282,698;  291,766;    0,000;-9,06849
 320,95;  496,193;  426,852;    0,000;69,34037
 321,12;   53,515;   24,741;    0,000;28,77342
 321,29;  -96,985;  -44,201;    0,000;-52,78410
 321,45;  370,994;  346,798;    0,000;24,19647
 321,62;  367,092;  329,832;    0,000;37,26001
 321,79; -110,859; -158,266;    0,000;47,40683
 321,96;    4,927;  -62,177;    0,000;67,10455
 322,12;  -22,632;  -91,195;    0,000;68,56306
 322,29;  -28,926;  -73,126;    0,000;44,19987
 322,46; -199,660; -254,154;    0,000;54,49320
 322,63; -186,405; -249,182;    0,000;62,77682
 322,80;  480,018;  427,900;    0,000;52,11767
 322,96;  175,960;   81,695;    0,000;94,26556
 323,13; -223,135; -198,296;    0,000;-24,83870
 323,30;   76,865;  -31,181;    0,000;108,04626
 323,47;  243,017;  169,669;    0,000;73,34776
 323,63;  611,587;  531,745;    0,000;79,84144
 323,80; -314,676; -336,068;    0,000;21,39235
 323,97;  172,298;  136,786;    0,000;35,51186
 324,14; -337,367; -479,165;    0,000;141,79888
 324,30; -340,764; -221,217;    0,000;-119,54644
 324,47; -312,673; -281,140;    0,000;-31,53332
 324,64; -114,908; -114,168;    0,000;-0,73999
 324,81;  250,071;  178,658;    0,000;71,41315
 324,97;    4,023;   55,814;    0,000;-51,79119
 325,14;    1,030;  133,829;    0,000;-132,79828
 325,31;  269,752;  266,813;    0,000; 2,93938
 325,48;  162,483;  143,682;    0,000;18,80180
 325,64;  202,938;  156,881;    0,000;46,05675
 325,81;    5,025;   28,857;    0,000;-23,83190
 325,98;  115,345;   40,818;    0,000;74,52682
 326,15; -253,968; -230,301;    0,000;-23,66643
 326,31;  381,798;  385,729;    0,000;-3,93062
 326,48;  -31,807;   56,795;    0,000;-88,60211
 326,65;  -56,905;  -84,124;    0,000;27,21930
 326,82;  408,829;  314,673;    0,000;94,15605
 326,98;  987,095;  776,818;    0,000;210,27682
 327,15;  -33,241;  -58,230;    0,000;24,98981
 327,32;   69,314;  -46,126;    0,000;115,44015
 327,49;  228,651;  150,735;    0,000;77,91655
 327,65;  286,316;  230,802;    0,000;55,51448
 327,82; -235,117; -269,281;    0,000;34,16392
 327,99; -270,650; -221,153;    0,000;-49,49708
 328,16;  123,381;  -12,151;    0,000;135,53207
 328,32;  362,819;  362,961;    0,000;-0,14127
 328,49;   57,563;  -14,357;    0,000;71,92024
 328,66; -131,696; -201,069;    0,000;69,37291
 328,82;  249,878;  173,748;    0,000;76,13030
 328,99;  478,814;  531,758;    0,000;-52,94480
 329,16; -200,558; -270,263;    0,000;69,70541
 329,33; -161,397; -137,110;    0,000;-24,28779
 329,49;  490,754;  499,683;    0,000;-8,92877
 329,66; -108,161; -155,211;    0,000;47,05073
 329,83;  127,339;   36,731;    0,000;90,60825
 330,00; -135,454; -129,142;    0,000;-6,31247
 330,16;   31,592;   25,774;    0,000; 5,81754
 330,33;  268,257;  309,784;    0,000;-41,52700
 330,50; -218,436; -245,242;    0,000;26,80520
 330,67; -221,145; -268,182;    0,000;47,03654
 330,83;  251,997;  271,783;    0,000;-19,78672
 331,00;  653,803;  564,700;    0,000;89,10300
 331,17;  437,388;  395,806;    0,000;41,58250
 331,33; -181,078; -195,264;    0,000;14,18598
 331,50;  256,463;  318,854;    0,000;-62,39020
 331,67;  149,517;   87,842;    0,000;61,67519
 331,84; -233,584; -191,293;    0,000;-42,29012
 332,00; -109,782; -148,290;    0,000;38,50846
 332,17;  -15,810;  -37,191;    0,000;21,38108
 332,34;  374,123;  402,776;    0,000;-28,65332
 332,51;   47,618;   14,805;    0,000;32,81306
 332,67;  -18,467;    9,814;    0,000;-28,28147
 332,84;  108,404;  118,836;    0,000;-10,43169
 333,01;  178,451;  168,925;    0,000; 9,52575
 333,17; -207,465; -202,258;    0,000;-5,20714
 333,34; -163,872; -157,310;    0,000;-6,56217
 333,51;  126,363;  167,833;    0,000;-41,47055
 333,68;  352,672;  242,793;    0,000;109,87846
 333,84; -401,261; -511,174;    0,000;109,91285
 334,01;  289,700;  234,752;    0,000;54,94832
 334,18;   67,510;  101,827;    0,000;-34,31772
 334,35;  279,525;  269,742;    0,000; 9,78314
 334,51;   11,288;  -36,272;    0,000;47,55967
 334,68;  -26,880;   21,791;    0,000;-48,67013
 334,85;   80,437;   65,708;    0,000;14,72931
 335,01;  116,497;   40,899;    0,000;75,59823
 335,18; -185,705; -188,257;    0,000; 2,55257
 335,35; -153,305;  -84,220;    0,000;-69,08530
 335,52;   19,038;  -54,157;    0,000;73,19462
 335,68;  493,373;  518,776;    0,000;-25,40332
 335,85; -320,114; -391,180;    0,000;71,06569
 336,02; -345,073; -446,235;    0,000;101,16208
 336,18; -304,903; -311,196;    0,000; 6,29363
 336,35;  244,440;  244,809;    0,000;-0,36892
 336,52; -326,903; -314,196;    0,000;-12,70637
 336,68; -208,333; -222,236;    0,000;13,90236
 336,85;  100,964;   61,911;    0,000;39,05228
 337,02;  647,188;  611,823;    0,000;35,36427
 337,19; -170,235; -169,201;    0,000;-1,03410
 337,35; -185,580; -147,135;    0,000;-38,44588
 337,52;   45,685;  103,838;    0,000;-58,15254
 337,69;  350,481;  318,811;    0,000;31,66994
 337,85; -292,026; -357,146;    0,000;65,11952
 338,02; -233,385; -253,296;    0,000;19,91130
 338,19;  -19,287;  -47,262;    0,000;27,97484
 338,36;  468,198;  371,824;    0,000;96,37399
 338,52;  -87,725; -102,316;    0,000;14,59066
 338,69;   90,358;  -51,196;    0,000;141,55335
 338,86;  327,378;  323,863;    0,000; 3,51526
 339,02;  437,551;  433,830;    0,000; 3,72115
 339,19; -104,348; -147,092;    0,000;42,74398
 339,36; -126,104; -129,237;    0,000; 3,13293
 339,52;  285,971;  270,753;    0,000;15,21775
 339,69;  182,852;  355,775;    0,000;-172,92275
 339,86; -157,727; -148,129;    0,000;-9,59871
 340,03; -135,406; -108,240;    0,000;-27,16565
 340,19;  -95,818; -130,148;    0,000;34,33065
 340,36;  179,878;  246,863;    0,000;-66,98474
 340,53;  242,329;  212,788;    0,000;29,54101
 340,69; -305,426; -270,126;    0,000;-35,30013
 340,86;  132,362;   62,718;    0,000;69,64449
 341,03;   56,152;  -69,092;    0,000;125,24398
 341,19; -174,140;  -90,152;    0,000;-83,98736
 341,36; -149,598; -236,092;    0,000;86,49398
 341,53;  191,458;  131,824;    0,000;59,63370
 341,70;  323,440;  178,809;    0,000;144,63108
 341,86;   63,574;   35,759;    0,000;27,81491
 342,03;  101,831;  158,716;    0,000;-56,88466
 342,20;  127,187;   86,708;    0,000;40,47931
 342,36;  534,164;  479,836;    0,000;54,32803
 342,53; -281,467; -334,186;    0,000;52,71853
 342,70;  305,523;  235,814;    0,000;69,70881
 342,86;  120,022;  141,756;    0,000;-21,73367
 343,03;  192,512;  194,698;    0,000;-2,18586
 343,20; -189,851; -205,193;    0,000;15,34221
 343,36;   74,293;   -7,185;    0,000;81,47824
 343,53;  273,749;  148,769;    0,000;124,98009
 343,70;  692,046;  642,858;    0,000;49,18753
 343,86; -200,576; -140,336;    0,000;-60,23969
 344,03; -215,215; -241,200;    0,000;25,98533
 344,20;  146,458;  230,824;    0,000;-84,36630
 344,37;  115,979;   67,768;    0,000;48,21066
 344,53; -151,668; -186,226;    0,000;34,55782
 344,70;   55,589;  -18,211;    0,000;73,80073
 344,87;  546,242;  517,870;    0,000;28,37214
 345,03;    4,667;   -5,178;    0,000; 9,84484
 345,20;  401,551;  276,830;    0,000;124,72115
 345,37;  293,188;  156,823;    0,000;136,36427
 345,53;  -30,619; -150,151;    0,000;119,53207
 345,70;  621,930;  458,924;    0,000;163,00632
 345,87; -278,498; -262,130;    0,000;-16,36815
 346,03;   39,466;   43,839;    0,000;-4,37339
 346,20; -148,174; -245,255;    0,000;97,08172
 346,37;  571,221;  458,695;    0,000;112,52527
 346,53; -222,645; -392,182;    0,000;169,53654
 346,70; -157,795; -139,219;    0,000;-18,57559
 346,87;  162,906;  148,706;    0,000;14,20016
 347,03;  291,296;  194,916;    0,000;96,38001
 347,20;  462,301;  339,714;    0,000;122,58619
 347,37;  116,546;    3,916;    0,000;112,63001
 347,53;  511,741;  394,696;    0,000;117,04470
 347,70;  548,572;  425,831;    0,000;122,74058
 347,87; -127,143; -114,311;    0,000;-12,83161
 348,03;  645,471;  483,753;    0,000;161,71775
 348,20;  512,295;  370,743;    0,000;141,55257
 348,37;  653,059;  548,902;    0,000;104,15653
 348,53;  -62,406; -160,240;    0,000;97,83435
 348,70;  186,267;   32,842;    0,000;153,42519
 348,87;  293,169;  160,808;    0,000;132,36165
 349,03;  419,213;  346,738;    0,000;72,47484
 349,20; -197,666; -317,183;    0,000;119,51711
 349,37;   61,610;  -74,152;    0,000;135,76264
 349,53;  -53,008; -195,130;    0,000;142,12214
 349,70; 1079,187;  857,766;    0,000;221,42179
 349,87;   99,131;    5,791;    0,000;93,33959
 350,03;  219,265;  136,799;    0,000;82,46590
 350,20;  257,866;   93,877;    0,000;163,98873
 350,37;  604,713;  389,796;    0,000;214,91732
 350,53;   97,156;  -60,294;    0,000;157,45016
 350,70;   14,404;  -65,280;    0,000;79,68336
 350,87;  563,051;  350,714;    0,000;212,33619
 351,03;  211,809;   92,845;    0,000;118,96405
 351,20;  141,350;  -50,268;    0,000;191,61796
 351,37;  -76,354; -214,121;    0,000;137,76788
 351,53;  643,983;  483,624;    0,000;160,35932
 351,70;  763,718;  682,652;    0,000;81,06598
 351,87;  180,618;  -49,195;    0,000;229,81306
 352,03;   22,927; -109,235;    0,000;132,16208
 352,20;  407,688;  137,881;    0,000;269,80675
 352,37;  213,471;   29,868;    0,000;183,60271
 352,53;   58,767; -198,273;    0,000;257,04023
 352,70;  107,231;  -65,189;    0,000;172,41994
 352,86;  324,130;   39,733;    0,000;284,39711
 353,03;  360,538;   78,728;    0,000;281,80967
 353,20;  260,579;   47,730;    0,000;212,84853
 353,36; -194,003; -415,159;    0,000;221,15576
 353,53;  454,600;  329,732;    0,000;124,86796
 353,70;  478,989;  167,884;    0,000;311,10533
 353,86;  365,355;  -58,297;    0,000;423,65158
 354,03;   44,133; -148,165;    0,000;192,29888
 354,20;  667,662;  314,793;    0,000;352,86874
 354,36;  736,615;  396,761;    0,000;339,85378
 354,53;  317,128;   14,805;    0,000;302,32278
 354,70;  112,760;  -35,115;    0,000;147,87476
 354,86;  590,602;  366,717;    0,000;223,88477
 355,03;  954,987;  612,840;    0,000;342,14604
 355,20;  -61,782; -325,233;    0,000;263,45094
 355,36;  620,450;  248,694;    0,000;371,75584
 355,53;  689,205;  298,781;    0,000;390,42441
 355,69; 1126,969;  722,883;    0,000;404,08590
 355,86;  332,661;   34,735;    0,000;297,92626
 356,03;  280,919;   48,808;    0,000;232,11165
 356,19;  801,188;  458,881;    0,000;342,30675
 356,36;  881,172;  448,909;    0,000;432,26341
 356,53;  269,249;   -4,173;    0,000;273,42257
 356,69;  105,218; -199,175;    0,000;304,39342
 356,86;  825,690;  484,751;    0,000;340,93860
 357,03;  509,711;  224,926;    0,000;284,78547
 357,19;  199,265; -141,201;    0,000;340,46590
 357,36;  734,883;  315,719;    0,000;419,16392
 357,52;  917,680;  384,808;    0,000;532,87136
 357,69;  729,703;  381,738;    0,000;347,96513
 357,86;  383,911;   -7,265;    0,000;391,17626
 358,02;  784,708;  310,882;    0,000;473,82618
 358,19;  531,965;  152,666;    0,000;379,29918
 358,36;  799,860;  301,790;    0,000;498,07016
 358,52;  312,705;  -76,219;    0,000;388,92441
 358,69;  159,352; -178,283;    0,000;337,63477
 358,86;  674,285;  243,685;    0,000;430,60038
 359,02;  971,383;  385,777;    0,000;585,60640
 359,19;  277,154; -164,164;    0,000;441,31831
 359,35;  413,512;   39,813;    0,000;373,69909
 359,52;  734,105;  287,818;    0,000;446,28654
 359,69; 1254,775;  697,799;    0,000;556,97562
 359,85;  524,710;  -10,305;    0,000;535,01556
 360,02;  492,154;   13,720;    0,000;478,43336
 360,19;  473,574;   74,701;    0,000;398,87243
 360,35; 1032,427;  589,707;    0,000;442,71960
 360,52;  314,989; -110,116;    0,000;425,10533
 360,68;  698,337;  100,861;    0,000;597,47639
 360,85;  808,553;  335,816;    0,000;472,73796
 361,02; 1041,110;  548,732;    0,000;492,37768
 361,18;  467,651; -106,208;    0,000;573,85902
 361,35;  594,948;   32,766;    0,000;562,18151
 361,52; 1005,916;  386,707;    0,000;619,20988
 361,68; 1113,363;  497,833;    0,000;615,52945
 361,85;  762,486;   60,725;    0,000;701,76109
 362,01;  426,530; -209,171;    0,000;635,70172
 362,18; 1075,267;  496,785;    0,000;578,48271
 362,35;  842,937;  278,766;    0,000;564,17179
 362,51;  669,540;   75,598;    0,000;593,94152
 362,68;  640,424;  -18,221;    0,000;658,64527
 362,84; 1155,118;  555,747;    0,000;599,37059
 363,01; 1295,375;  595,762;    0,000;699,61349
 363,18;  738,801;    7,714;    0,000;731,08619
 363,34;  542,007; -170,216;    0,000;712,22300
 363,51; 1145,041;  407,829;    0,000;737,21143
 363,67;  771,723;   97,739;    0,000;673,98456
 363,84;  832,368;   90,863;    0,000;741,50554
 364,01;  851,509;  123,770;    0,000;727,73981
 364,17; 1473,295;  605,685;    0,000;867,61010
 364,34; 1266,417;  625,764;    0,000;640,65236
 364,51;  776,329;   -8,212;    0,000;784,54101
 364,67;  601,409; -181,135;    0,000;782,54441
 364,84; 1383,383;  604,777;    0,000;778,60640
 365,00; 1762,012;  948,755;    0,000;813,25661
 365,17;  570,747;  -92,159;    0,000;662,90576
 365,34;  927,432;  191,621;    0,000;735,81074
 365,50; 1432,200;  673,636;    0,000;758,56336
 365,67; 1189,958;  387,824;    0,000;802,13370
 365,83;  833,829;  -39,212;    0,000;873,04101
 366,00;  762,749; -174,231;    0,000;936,98009
 366,17; 1456,970;  576,638;    0,000;880,33279
 366,33; 1626,703;  782,738;    0,000;843,96513
 366,50; 1092,043;  152,699;    0,000;939,34329
 366,66;  884,597;  -48,254;    0,000;932,85115
 366,83; 1079,657;  219,879;    0,000;859,77760
 367,00; 1252,688;  313,881;    0,000;938,80675
 367,16;  923,079;   69,730;    0,000;853,34853
 367,33; 1056,659;  117,865;    0,000;938,79441
 367,49; 1705,151;  706,735;    0,000;998,41655
 367,66; 1333,535;  403,800;    0,000;929,73533
 367,83;  701,033; -202,186;    0,000;903,21853
 367,99;  850,868; -151,137;    0,000;1002,00554
 368,16; 1975,306;  885,743;    0,000;1089,56229
 368,32; 1393,170;  372,865;    0,000;1020,30412
 368,49;  955,834; -115,298;    0,000;1071,13215
 368,66;  907,378;  -51,195;    0,000;958,57278
 368,82; 1504,015;  532,914;    0,000;971,10086
 368,99; 1581,857;  572,746;    0,000;1009,11087
 369,15; 1193,973;  192,681;    0,000;1001,29208
 369,32; 1554,762;  419,698;    0,000;1135,06414
 369,48;  944,229; -137,174;    0,000;1081,40313
 369,65; 1768,610;  767,674;    0,000;1000,93520
 369,82;  849,587; -145,255;    0,000;994,84144
 369,98; 1336,924;  317,664;    0,000;1019,26031
 370,15; 1349,296;  284,801;    0,000;1064,49505
 370,31; 1925,187;  732,766;    0,000;1192,42179
 370,48; 1114,218;   24,710;    0,000;1089,50846
 370,65;  785,608; -229,196;    0,000;1014,80335
 370,81; 1481,432;  395,794;    0,000;1085,63817
 370,98; 1785,394;  669,893;    0,000;1115,50107
 371,14; 1491,914;  326,663;    0,000;1165,25059
 371,31; 1222,517;  233,727;    0,000;988,79023
 371,48; 1295,943;  313,795;    0,000;982,14789
 371,64; 1768,308;  557,729;    0,000;1210,57910
 371,81; 1859,324;  563,759;    0,000;1295,56491
 371,97; 1449,177;  286,707;    0,000;1162,46960
 372,14; 1629,886;  385,820;    0,000;1244,06569
 372,30; 1664,747;  558,783;    0,000;1105,96328
 372,47; 1157,950;   21,810;    0,000;1136,14080
 372,64; 1375,120;  239,733;    0,000;1135,38740
 372,80; 1008,438; -106,177;    0,000;1114,61427
 372,97; 1751,442;  540,737;    0,000;1210,70541
 373,13;  940,311; -188,285;    0,000;1128,59591
 373,30; 1379,615;  136,761;    0,000;1242,85378
 373,46; 2062,806;  692,801;    0,000;1370,00477
 373,63; 1773,108;  640,862;    0,000;1132,24583
 373,80; 1185,316;   58,744;    0,000;1126,57201
 373,96; 1566,909;  333,807;    0,000;1233,10193
 374,13; 1526,481;  428,696;    0,000;1097,78499
 374,29; 1577,007;  413,726;    0,000;1163,28052
 374,46; 1236,809;  -57,213;    0,000;1294,02158
 374,62; 1363,716;   38,839;    0,000;1324,87661
 374,79; 1639,437;  369,708;    0,000;1269,72931
 374,96; 2054,301;  825,772;    0,000;1228,52867
 375,12; 1563,649;  201,807;    0,000;1361,84221
 375,29; 1464,033;  168,757;    0,000;1295,27605
 375,45; 1635,226;  327,667;    0,000;1307,55889
 375,62; 1977,688;  672,823;    0,000;1304,86427
 375,78; 1419,852;  209,717;    0,000;1210,13477
 375,95; 1566,380;  230,676;    0,000;1335,70464
 376,12; 2024,878;  722,863;    0,000;1302,01526
 376,28; 1847,461;  557,810;    0,000;1289,65051
 376,45; 1323,198;   34,766;    0,000;1288,43151
 376,61; 1541,079;  146,788;    0,000;1394,29101
 376,78; 2383,074;  981,817;    0,000;1401,25739
 376,94; 1727,105;  426,876;    0,000;1300,22902
 377,11; 1447,345;  105,818;    0,000;1341,52682
 377,27; 1586,528;  312,785;    0,000;1273,74243
 377,44; 1792,347;  411,861;    0,000;1380,48611
 377,61; 1435,494;   86,798;    0,000;1348,69647
 377,77; 1844,211;  421,810;    0,000;1422,40051
 377,94; 1386,865;   52,819;    0,000;1334,04626
 378,10; 2078,783;  566,814;    0,000;1511,96853
 378,27; 1810,033;  389,757;    0,000;1420,27605
 378,43; 1505,087;  125,803;    0,000;1379,28392
 378,60; 1196,059; -227,155;    0,000;1423,21405
 378,76; 1992,816;  534,686;    0,000;1458,12953
 378,93; 2124,285;  674,800;    0,000;1449,48533
 379,10; 1561,355;  107,703;    0,000;1453,65158
 379,26; 1767,229;  282,768;    0,000;1484,46066
 379,43; 2392,156;  884,706;    0,000;1507,45016
 379,59; 2326,350;  774,732;    0,000;1551,61796
 379,76; 1460,930; -104,249;    0,000;1565,17888
 379,92; 1737,649;  195,749;    0,000;1541,89974
 380,09; 2192,710;  641,752;    0,000;1550,95803
 380,25; 2040,025;  535,857;    0,000;1504,16810
 380,42; 1650,852;   17,717;    0,000;1633,13477
 380,59; 1553,401;   63,792;    0,000;1489,60902
 380,75; 1541,458;  142,767;    0,000;1398,69122
 380,92; 2112,515;  674,741;    0,000;1437,77342
 381,08; 1374,806; -163,141;    0,000;1537,94725
 381,25; 1477,453;    4,795;    0,000;1472,65760
 381,41; 2150,633;  524,719;    0,000;1625,91392
 381,58; 2306,791;  752,829;    0,000;1553,96143
 381,74; 1401,718;  -50,175;    0,000;1451,89342
 381,91; 1448,053;  -44,300;    0,000;1492,35300
 382,07; 1643,909;  320,749;    0,000;1323,15945
 382,24; 1584,811;   65,715;    0,000;1519,09591
 382,40; 1455,064;  -29,242;    0,000;1484,30520
 382,57; 1584,610;  112,790;    0,000;1471,82016
 382,74; 1606,355;  206,761;    0,000;1399,59406
 382,90; 2302,783;  775,872;    0,000;1526,91100
 383,07; 1398,492; -104,188;    0,000;1502,67966
 383,23; 1898,514;  306,683;    0,000;1591,83095
 383,40; 2141,564;  556,932;    0,000;1584,63263
 383,56; 1877,435;  216,780;    0,000;1660,65498
 383,73; 1554,806;  106,743;    0,000;1448,06229
 383,89; 1982,146;  335,705;    0,000;1646,44045
 384,06; 2045,736;  495,783;    0,000;1549,95356
 384,22; 2158,391;  577,849;    0,000;1580,54178
 384,39; 1466,352;   -3,225;    0,000;1469,57725
 384,55; 1825,559;  260,787;    0,000;1564,77158
 384,72; 2059,602;  482,775;    0,000;1576,82725
 384,88; 1998,633;  321,835;    0,000;1676,79888
 385,05; 1744,419;   95,808;    0,000;1648,61165
 385,22; 1783,097;  115,804;    0,000;1667,29363
 385,38; 2264,510;  796,827;    0,000;1467,68228
 385,55; 2760,878;  960,748;    0,000;1800,13030
 385,71; 1709,352;   61,775;    0,000;1647,57725
 385,88; 1817,912;   59,851;    0,000;1758,06122
 386,04; 2324,487;  444,840;    0,000;1879,64604
 386,21; 2086,701;  367,925;    0,000;1718,77575
 386,37; 2256,117;  466,632;    0,000;1789,48563
 386,54; 1911,188;  118,823;    0,000;1792,36427
 386,70; 1762,275;    6,799;    0,000;1755,47562
 386,87; 2283,551;  639,714;    0,000;1643,83619
 387,03; 1889,942;   34,737;    0,000;1855,20541
 387,20; 2064,880;  228,733;    0,000;1836,14711
 387,36; 2069,056;  165,743;    0,000;1903,31229
 387,53; 2443,953;  740,795;    0,000;1703,15760
 387,69; 1654,175;   42,895;    0,000;1611,28022
 387,86; 1721,053;   12,700;    0,000;1708,35300
 388,02; 1876,466;  110,782;    0,000;1765,68413
 388,19; 2447,327;  652,860;    0,000;1794,46668
 388,35; 1755,821;   66,773;    0,000;1689,04810
 388,52; 1743,991;   66,696;    0,000;1677,29470
 388,69; 2296,234;  522,797;    0,000;1773,43675
 388,85; 2742,442;  630,737;    0,000;2111,70541
 389,02; 1985,197;   48,708;    0,000;1936,48903
 389,18; 1987,180;  208,982;    0,000;1778,19880
 389,35; 2083,339;  347,731;    0,000;1735,60825
 389,51; 2498,339;  672,789;    0,000;1825,55073
 389,68; 1764,708;   97,767;    0,000;1666,94122
 389,84; 2136,600;  221,789;    0,000;1914,81044
 390,01; 2027,373;  260,776;    0,000;1766,59668
 390,17; 2598,736;  861,783;    0,000;1736,95356
 390,34; 1837,731;   52,811;    0,000;1784,91994
 390,50; 1770,154;   54,778;    0,000;1715,37583
 390,67; 2144,494;  329,740;    0,000;1814,75399
 390,83; 2371,048;  525,786;    0,000;1845,26186
 391,00; 1793,512;  -92,129;    0,000;1885,64157
 391,16; 2312,499;  473,769;    0,000;1838,73009
 391,33; 1947,188;  235,823;    0,000;1711,36427
 391,49; 2427,863;  606,776;    0,000;1821,08697
 391,66; 1726,252;   31,813;    0,000;1694,43938
 391,82; 1701,409;  -98,193;    0,000;1799,60193
 391,99; 2058,265;  299,741;    0,000;1758,52342
 392,15; 2382,752;  615,813;    0,000;1766,93938
 392,32; 1983,909;  171,807;    0,000;1812,10193
 392,48; 1744,383; -172,223;    0,000;1916,60640
 392,65; 2296,471;  567,811;    0,000;1728,66023
 392,81; 2560,795;  661,743;    0,000;1899,05257
 392,98; 2062,069;   60,730;    0,000;2001,33882
 393,14; 1888,281;  183,886;    0,000;1704,39419
 393,31; 2330,046;  604,801;    0,000;1725,24505
 393,47; 1941,245;  201,913;    0,000;1739,33143
 393,64; 1665,175;  -86,105;    0,000;1751,28022
 393,80; 1973,584;  139,702;    0,000;1833,88215
 393,97; 2081,696;  424,896;    0,000;1656,79965
 394,13; 2562,193;  877,795;    0,000;1684,39789
 394,30; 2043,507;  109,842;    0,000;1933,66547
 394,46; 2242,409;  294,807;    0,000;1947,60193
 394,63; 2481,731;  592,754;    0,000;1888,97747
 394,79; 2251,370;  519,733;    0,000;1731,63740
 394,96; 2011,610;   71,848;    0,000;1939,76264
 395,12; 1973,592;  174,832;    0,000;1798,76001
 395,29; 2077,986;  327,667;    0,000;1750,31861
 395,45; 2333,139;  457,864;    0,000;1875,27498
 395,62; 2101,507;  236,842;    0,000;1864,66547
 395,78; 1872,113;   63,833;    0,000;1808,27945
 395,95; 2427,342;  567,717;    0,000;1859,62506
 396,11; 2644,360;  635,848;    0,000;2008,51264
 396,28; 2120,824;  253,874;    0,000;1866,94987
 396,44; 2131,376;  125,877;    0,000;2005,49845
 396,60; 2527,610;  638,790;    0,000;1888,82016
 396,77; 2539,515;  707,741;    0,000;1831,77342
 396,93; 2468,613;  212,776;    0,000;2255,83697
 397,10; 2483,618;  106,805;    0,000;2376,81306
 397,26; 2576,706;  603,896;    0,000;1972,80937
 397,43; 2004,940;   92,867;    0,000;1912,07356
 397,59; 1904,551;   88,888;    0,000;1815,66363
 397,76; 2230,678;  231,938;    0,000;1998,73951
 397,92; 2391,218;  443,767;    0,000;1947,45094
 398,09; 2342,620;  377,617;    0,000;1965,00244
 398,25; 2612,371;  584,848;    0,000;2027,52235
 398,42; 2229,569;  201,788;    0,000;2027,78129
 398,58; 2460,110;  408,848;    0,000;2051,26264
 398,75; 2196,803;  265,816;    0,000;1930,98796
 398,91; 2121,180;   85,808;    0,000;2035,37136
 399,08; 2423,584;  225,817;    0,000;2197,76711
 399,24; 2590,860;  407,732;    0,000;2183,12768
 399,41; 2865,883;  775,777;    0,000;2090,10640
 399,57; 1901,216;  -60,218;    0,000;1961,43413
 399,74; 2199,038;  236,901;    0,000;1962,13710
 399,90; 2273,219;  371,883;    0,000;1901,33590
 400,07; 2647,935;  621,780;    0,000;2026,15498
 400,23; 2171,680;  108,751;    0,000;2062,92888
 400,39; 2339,716;  233,724;    0,000;2105,99165
 400,56; 2326,286;  248,858;    0,000;2077,42781
 400,72; 2042,069;   51,788;    0,000;1990,28129
 400,89; 1955,677;  109,765;    0,000;1845,91208
 401,05; 2049,631;   87,791;    0,000;1961,83959
 401,22; 2406,693;  503,795;    0,000;1902,89789
 401,38; 2253,543;  443,757;    0,000;1809,78576
 401,55; 2181,950;  206,636;    0,000;1975,31336
 401,71; 1990,115;   82,819;    0,000;1907,29626
 401,88; 2537,051;  594,772;    0,000;1942,27867
 402,04; 2755,174;  769,721;    0,000;1985,45279
 402,21; 2006,924;    0,779;    0,000;2006,14527
 402,37; 2136,582;  286,947;    0,000;1849,63525
 402,53; 2442,293;  421,815;    0,000;2020,47824
 402,70; 2213,829;  222,846;    0,000;1990,98349
 402,86; 2041,094;  107,702;    0,000;1933,39187
 403,03; 2084,291;  153,945;    0,000;1930,34639
 403,19; 2417,798;  379,729;    0,000;2038,06938
 403,36; 2111,424;  192,721;    0,000;1918,70279
 403,52; 2277,667;  369,764;    0,000;1907,90236
 403,69; 1984,497;  149,841;    0,000;1834,65576
 403,85; 2263,999;  305,827;    0,000;1958,17257
 404,02; 2649,781;  677,886;    0,000;1971,89419
 404,18; 2097,146;  264,821;    0,000;1832,32540
 404,35; 2201,389;  196,921;    0,000;2004,46745
 404,51; 2470,799;  461,902;    0,000;2008,89682
 404,67; 2463,097;  584,804;    0,000;1878,29363
 404,84; 2410,749;  273,769;    0,000;2136,98009
 405,00; 2224,417;  229,938;    0,000;1994,47979
 405,17; 2494,033;  628,814;    0,000;1865,21853
 405,33; 2627,638;  766,748;    0,000;1860,89002
 405,50; 2219,273;  188,814;    0,000;2030,45881
 405,66; 2128,198;  132,882;    0,000;1995,31646
 405,83; 2617,533;  567,757;    0,000;2049,77605
 405,99; 2475,412;  495,793;    0,000;1979,61874
 406,15; 2558,693;  193,795;    0,000;2364,89789
 406,32; 2959,018;  281,900;    0,000;2677,11767
 406,48; 2423,221;   92,753;    0,000;2330,46775
 406,65; 3210,878;  751,863;    0,000;2459,01526
 406,81; 2793,069;  248,903;    0,000;2544,16625
 406,98; 2802,293;  244,873;    0,000;2557,42072
 407,14; 2877,033;  533,872;    0,000;2343,16100
 407,31; 2927,270;  597,828;    0,000;2329,44200
 407,47; 2181,376;  108,820;    0,000;2072,55597
 407,63; 2322,659;  151,865;    0,000;2170,79441
 407,80; 2392,187;  404,766;    0,000;1987,42179
 407,96; 2568,991;  638,754;    0,000;1930,23718
 408,13; 2179,396;  113,879;    0,000;2065,51788
 408,29; 2249,523;  127,814;    0,000;2121,70881
 408,46; 2032,888;   76,691;    0,000;1956,19754
 408,62; 2687,345;  651,818;    0,000;2035,52682
 408,79; 2266,443;  261,852;    0,000;2004,59037
 408,95; 2293,708;  172,824;    0,000;2120,88370
 409,11; 2177,373;  284,776;    0,000;1892,59668
 409,28; 2309,701;  575,867;    0,000;1733,83327
 409,44; 1992,845;  156,933;    0,000;1835,91178
 409,61; 2467,742;  420,870;    0,000;2046,87214
 409,77; 2906,822;  708,831;    0,000;2197,99058
 409,94; 2625,144;  229,835;    0,000;2395,30859
 410,10; 3792,775;  294,799;    0,000;3497,97562
 410,26; 4197,329;  333,846;    0,000;3863,48349
 410,43; 2815,296;  388,801;    0,000;2426,49505
 410,59; 2421,319;  411,788;    0,000;2009,53129
 410,76; 2305,285;  303,742;    0,000;2001,54286
 410,92; 2718,112;  698,718;    0,000;2019,39449
 411,09; 2360,059;  525,845;    0,000;1834,21405
 411,25; 1766,394;  -10,107;    0,000;1776,50107
 411,41; 1934,280;  124,771;    0,000;1809,50924
 411,58; 1931,899;   73,864;    0,000;1858,03469
 411,74; 2531,275;  727,799;    0,000;1803,47562
 411,91; 1819,324;   -3,241;    0,000;1822,56491
 412,07; 1741,646;  -16,295;    0,000;1757,94045
 412,24; 2020,077;  273,802;    0,000;1746,27420
 412,40; 2556,365;  751,761;    0,000;1804,60378
 412,56; 2575,298;  667,786;    0,000;1907,51186
 412,73; 2017,649;  222,749;    0,000;1794,89974
 412,89; 2080,138;  273,748;    0,000;1806,39002
 413,06; 2248,406;  381,764;    0,000;1866,64264
 413,22; 2815,094;  875,760;    0,000;1939,33435
 413,38; 2123,685;  206,722;    0,000;1916,96250
 413,55; 1882,257;  110,784;    0,000;1771,47300
 413,71; 1986,844;  211,702;    0,000;1775,14187
 413,88; 2317,930;  482,751;    0,000;1835,17888
 414,04; 1641,123;  -51,224;    0,000;1692,34668
 414,21; 2038,414;  238,779;    0,000;1799,63555
 414,37; 1665,505;  -84,144;    0,000;1749,64866
 414,53; 2457,481;  565,811;    0,000;1891,66994
 414,70; 2123,556;  291,801;    0,000;1831,75477
 414,86; 1825,902;   25,908;    0,000;1799,99398
 415,03; 2410,005;  739,914;    0,000;1670,09114
 415,19; 2814,648;  951,691;    0,000;1862,95726
 415,35; 1729,234; -100,203;    0,000;1829,43675
 415,52; 2020,121;  219,906;    0,000;1800,21483
 415,68; 2644,322;  627,889;    0,000;2016,43306
 415,85; 2594,059;  641,845;    0,000;1952,21405
 416,01; 1869,213;  106,738;    0,000;1762,47484
 416,17; 2427,945;  427,838;    0,000;2000,10718
 416,34; 2452,223;  562,796;    0,000;1889,42704
 416,50; 2483,788;  509,786;    0,000;1974,00214
 416,67; 2006,852;   55,775;    0,000;1951,07725
 416,83; 2084,739;  258,768;    0,000;1825,97037
 416,99; 2523,162;  614,908;    0,000;1908,25370
 417,16; 2452,226;  180,898;    0,000;2271,32880
 417,32; 2108,345;  -38,124;    0,000;2146,46930
 417,49; 2449,038;  279,901;    0,000;2169,13710
 417,65; 2956,945;  427,780;    0,000;2529,16470
 417,81; 2849,631;  258,849;    0,000;2590,78207
 417,98; 2458,783;   48,872;    0,000;2409,91100
 418,14; 2152,049;   14,902;    0,000;2137,14682
 418,31; 2521,128;  532,748;    0,000;1988,38030
 418,47; 2500,360;  681,905;    0,000;1818,45511
 418,63; 1676,386;   47,820;    0,000;1628,56569
 418,80; 1921,262;  311,755;    0,000;1609,50661
 418,96; 2438,164;  811,779;    0,000;1626,38555
 419,13; 2340,852;  371,833;    0,000;1969,01973
 419,29; 1660,902;  -46,150;    0,000;1707,05150
 419,45; 1979,819;   65,845;    0,000;1913,97377
 419,62; 2501,280;  568,829;    0,000;1932,45172
 419,78; 2605,025;  715,799;    0,000;1889,22562
 419,95; 1901,899;   70,807;    0,000;1831,09221
 420,11; 2182,002;  260,870;    0,000;1921,13185
 420,27; 1980,899;  229,749;    0,000;1751,14974
 420,44; 2596,767;  379,842;    0,000;2216,92519
 420,60; 2227,231;  126,869;    0,000;2100,36242
 420,77; 2083,517;  100,785;    0,000;1982,73271
 420,93; 2652,731;  598,754;    0,000;2053,97747
 421,09; 2715,056;  326,801;    0,000;2388,25477
 421,26; 2554,226;  178,724;    0,000;2375,50137
 421,42; 1998,254;  -15,202;    0,000;2013,45619
 421,58; 1918,906;  142,764;    0,000;1776,14264
 421,75; 2175,056;  482,917;    0,000;1692,13972
 421,91; 1759,123;   95,776;    0,000;1663,34668
 422,08; 1930,922;  222,736;    0,000;1708,18598
 422,24; 2246,932;  384,852;    0,000;1862,08065
 422,40; 2244,458;  488,824;    0,000;1755,63370
 422,57; 1658,956;   23,839;    0,000;1635,11689
 422,73; 1995,569;  331,788;    0,000;1663,78129
 422,90; 2191,471;  683,753;    0,000;1507,71775
 423,06; 2536,613;  841,833;    0,000;1694,77945
 423,22; 1901,811;  202,715;    0,000;1699,09591
 423,39; 1508,355;  -46,182;    0,000;1554,53654
 423,55; 1938,329;  286,846;    0,000;1651,48349
 423,71; 1715,577;  163,802;    0,000;1551,77420
 423,88; 1901,814;  279,816;    0,000;1621,99767
 424,04; 1460,899;  -53,136;    0,000;1514,03469
 424,21; 1974,891;  411,792;    0,000;1563,09931
 424,37; 2333,669;  826,750;    0,000;1506,91917
 424,53; 1630,084;   52,817;    0,000;1577,26711
 424,70; 1804,870;  171,791;    0,000;1633,07987
 424,86; 2278,937;  711,708;    0,000;1567,22931
 425,02; 2458,564;  809,816;    0,000;1648,74767
 425,19; 1520,115;  -74,239;    0,000;1594,35378
 425,35; 1901,690;  287,809;    0,000;1613,88108
 425,51; 2467,670;  842,923;    0,000;1624,74660
 425,68; 1788,320;  244,018;    0,000;1544,30120
 425,84; 2031,507;  411,784;    0,000;1619,72300
 426,01; 1471,515;  -11,259;    0,000;1482,77342
 426,17; 2043,757;  452,784;    0,000;1590,97300
 426,33; 2539,894;  880,893;    0,000;1659,00107
 426,50; 1544,221;   94,811;    0,000;1449,41023
 426,66; 1713,966;  117,897;    0,000;1596,06909
 426,82; 1955,646;  396,763;    0,000;1558,88293
 426,99; 2034,342;  417,832;    0,000;1616,51001
 427,15; 1722,883;   82,777;    0,000;1640,10640
 427,31; 1588,554;   54,873;    0,000;1533,68044
 427,48; 2197,074;  639,932;    0,000;1557,14235
 427,64; 2276,440;  767,924;    0,000;1508,51603
 427,81; 1546,950;  101,810;    0,000;1445,14080
 427,97; 1705,793;   78,815;    0,000;1626,97824
 428,13; 2005,728;  379,710;    0,000;1626,01818
 428,30; 2005,226;  403,782;    0,000;1601,44385
 428,46; 1804,007;  196,668;    0,000;1607,33804
 428,62; 1498,788;  -29,099;    0,000;1527,88710
 428,79; 2079,649;  527,807;    0,000;1551,84221
 428,95; 2545,128;  971,863;    0,000;1573,26526
 429,11; 1555,442;    2,737;    0,000;1552,70541
 429,28; 1545,125;   41,762;    0,000;1503,36349
 429,44; 1623,180;   49,808;    0,000;1573,37136
 429,60; 2167,602;  589,775;    0,000;1577,82725
 429,77; 1463,760;  -65,173;    0,000;1528,93228
 429,93; 1755,499;  116,827;    0,000;1638,67257
 430,10; 1771,115;  319,761;    0,000;1451,35378
 430,26; 2323,816;  782,744;    0,000;1541,07201
 430,42; 1393,249; -242,231;    0,000;1635,48009
 430,59; 1935,100;  288,789;    0,000;1646,31044
 430,75; 1979,749;  362,769;    0,000;1616,98009
 430,91; 1970,798;  405,786;    0,000;1565,01186
 431,08; 1619,651;  143,735;    0,000;1475,91655
 431,24; 1504,092;  -57,168;    0,000;1561,26001
 431,40; 2239,666;  678,707;    0,000;1560,95988
 431,57; 1801,822;  362,889;    0,000;1438,93306
 431,73; 1521,780;  105,829;    0,000;1415,95172
 431,89; 1569,626;  125,877;    0,000;1443,74845
 432,06; 2096,535;  491,800;    0,000;1604,73533
 432,22; 2209,033;  630,757;    0,000;1578,27605
 432,38; 1544,801;  113,888;    0,000;1430,91363
 432,55; 1782,945;  288,780;    0,000;1494,16470
 432,71; 2025,244;  417,798;    0,000;1607,44647
 432,87; 2064,539;  573,959;    0,000;1490,57958
 433,04; 1556,280;   19,829;    0,000;1536,45172
 433,20; 1639,880;   44,733;    0,000;1595,14711
 433,36; 2349,729;  766,883;    0,000;1582,84561
 433,53; 2386,896;  630,821;    0,000;1756,07540
 433,69; 2531,355;  135,818;    0,000;2395,53654
 433,85; 4880,592;  143,832;    0,000;4736,76001
 434,02;12461,602;  812,717;    0,000;11648,88477
 434,18;10478,391; 1292,849;    0,000;9185,54178
 434,34; 3575,976;  181,782;    0,000;3394,19385
 434,51; 1933,549;   87,902;    0,000;1845,64682
 434,67; 1701,605;  162,876;    0,000;1538,72902
 434,83; 1660,085;   51,875;    0,000;1608,20958
 435,00; 1456,370;   -9,209;    0,000;1465,57987
 435,16; 1714,896;   98,821;    0,000;1616,07540
 435,32; 2340,922;  734,736;    0,000;1606,18598
 435,49; 2321,185;  728,838;    0,000;1592,34746
 435,65; 1638,906;  120,764;    0,000;1518,14264
 435,81; 1326,953;  -99,147;    0,000;1426,10008
 435,98; 1981,002;  541,928;    0,000;1439,07433
 436,14; 2095,223;  588,739;    0,000;1506,48456
 436,30; 1524,203;  -53,262;    0,000;1577,46513
 436,47; 1330,185;  -96,105;    0,000;1426,28994
 436,63; 2158,203;  542,738;    0,000;1615,46513
 436,79; 1793,925;  394,837;    0,000;1399,08774
 436,96; 1376,100; -241,268;    0,000;1617,36796
 437,12; 1785,249;  218,827;    0,000;1566,42257
 437,28; 2106,930;  622,751;    0,000;1484,17888
 437,45; 2160,770;  722,886;    0,000;1437,88448
 437,61; 1580,672;  127,851;    0,000;1452,82093
 437,77; 1310,231;  -83,131;    0,000;1393,36242
 437,93; 2697,293; 1091,757;    0,000;1605,53576
 438,10; 2538,446;  968,954;    0,000;1569,49213
 438,26; 1657,082;  123,832;    0,000;1533,25030
 438,42; 1811,845;  197,818;    0,000;1614,02682
 438,59; 1543,762;  168,755;    0,000;1375,00661
 438,75; 2345,414;  795,836;    0,000;1549,57803
 438,91; 1358,386; -123,295;    0,000;1481,68073
 439,08; 1548,757;  -14,216;    0,000;1562,97300
 439,24; 1894,285;  315,800;    0,000;1578,48533
 439,40; 2154,041;  677,829;    0,000;1476,21143
 439,57; 1573,144;   72,893;    0,000;1500,25107
 439,73; 1862,734;  267,739;    0,000;1594,99428
 439,89; 2400,968;  779,825;    0,000;1621,14342
 440,06; 1985,647;  305,936;    0,000;1679,71036
 440,22; 1572,801;   59,830;    0,000;1512,97115
 440,38; 1576,201;  103,867;    0,000;1472,33327
 440,54; 1520,612;   68,660;    0,000;1451,95201
 440,71; 2660,649; 1155,749;    0,000;1504,89974
 440,87; 1452,260;   -2,115;    0,000;1454,37476
 441,03; 1628,943;   19,910;    0,000;1609,03284
 441,20; 2078,873;  252,834;    0,000;1826,03916
 441,36; 2536,487;  329,898;    0,000;2206,58852
 441,52; 1767,077; -155,198;    0,000;1922,27420
 441,69; 2323,525;  304,857;    0,000;2018,66810
 441,85; 2517,100;  486,847;    0,000;2030,25292
 442,01; 2110,860;  305,848;    0,000;1805,01264
 442,17; 2027,767;  313,842;    0,000;1713,92519
 442,34; 1534,311; -156,112;    0,000;1690,42334
 442,50; 2197,440;  628,867;    0,000;1568,57356
 442,66; 2330,999;  762,769;    0,000;1568,23009
 442,83; 1604,224;    9,854;    0,000;1594,36952
 442,99; 1590,376;  118,820;    0,000;1471,55597
 443,15; 1931,487;  520,898;    0,000;1410,58852
 443,32; 1804,788;  319,901;    0,000;1484,88710
 443,48; 1544,455;   51,723;    0,000;1492,73194
 443,64; 1569,136;  102,878;    0,000;1466,25817
 443,80; 1783,223;  345,796;    0,000;1437,42704
 443,97; 1930,226;  511,840;    0,000;1418,38632
 444,13; 1278,618;  -83,195;    0,000;1361,81306
 444,29; 1486,564; -144,126;    0,000;1630,69015
 444,46; 2056,494;  311,798;    0,000;1744,69647
 444,62; 2247,721;  312,811;    0,000;1934,91023
 444,78; 1996,876;   66,820;    0,000;1930,05597
 444,94; 1647,994; -156,202;    0,000;1804,19647
 445,11; 2137,316;  438,802;    0,000;1698,51448
 445,27; 1848,270;  243,828;    0,000;1604,44200
 445,43; 1615,780;  122,829;    0,000;1492,95172
 445,60; 1912,226;  102,898;    0,000;1809,32880
 445,76; 2215,589;  408,789;    0,000;1806,80073
 445,92; 2722,654;  830,893;    0,000;1891,76079
 446,08; 1980,247;   16,783;    0,000;1963,46328
 446,25; 2130,546;  304,916;    0,000;1825,63001
 446,41; 2115,719;  491,998;    0,000;1623,72085
 446,57; 1652,378;  217,805;    0,000;1434,57278
 446,74; 1436,406;   11,764;    0,000;1424,64264
 446,90; 1550,920;   93,923;    0,000;1456,99660
 447,06; 2054,288;  704,786;    0,000;1349,50214
 447,22; 2091,793;  657,873;    0,000;1433,92072
 447,39; 1496,160;  119,923;    0,000;1376,23689
 447,55; 1717,992;  251,812;    0,000;1466,17966
 447,71; 1573,664;  119,836;    0,000;1453,82803
 447,87; 2071,572;  521,831;    0,000;1549,74058
 448,04; 1533,822;  197,889;    0,000;1335,93306
 448,20; 1621,824;  -20,183;    0,000;1642,00739
 448,36; 2074,736;  516,783;    0,000;1557,95356
 448,53; 2824,473;  991,796;    0,000;1832,67704
 448,69; 1826,675;   47,895;    0,000;1778,78022
 448,85; 1964,337;  118,861;    0,000;1845,47639
 449,01; 1751,850; -123,095;    0,000;1874,94540
 449,18; 2277,446;  579,896;    0,000;1697,54965
 449,34; 1888,801;  334,830;    0,000;1553,97115
 449,50; 1842,430;  327,866;    0,000;1514,56384
 449,66; 2500,548;  667,844;    0,000;1832,70434
 449,83; 2690,683;  667,910;    0,000;2022,77313
 449,99; 1965,567;  220,860;    0,000;1744,70696
 450,15; 1941,337;  194,803;    0,000;1746,53392
 450,31; 1738,167;  270,880;    0,000;1467,28731
 450,48; 1771,035;  281,800;    0,000;1489,23533
 450,64; 1347,896;   -7,179;    0,000;1355,07540
 450,80; 1476,767;   45,842;    0,000;1430,92519
 450,97; 2064,185;  623,838;    0,000;1440,34746
 451,13; 2389,002;  852,870;    0,000;1536,13185
 451,29; 1592,384;   75,892;    0,000;1516,49136
 451,45; 1774,664;  145,779;    0,000;1628,88555
 451,62; 1791,265;  271,741;    0,000;1519,52342
 451,78; 1966,969;  531,883;    0,000;1435,08590
 451,94; 1425,234;  -11,087;    0,000;1436,32171
 452,10; 2006,513;  493,986;    0,000;1512,52653
 452,27; 2585,538; 1029,728;    0,000;1555,80967
 452,43; 2396,296;  781,801;    0,000;1614,49505
 452,59; 1441,033;   10,930;    0,000;1430,10348
 452,75; 1570,749;  163,769;    0,000;1406,98009
 452,92; 2210,950;  817,810;    0,000;1393,14080
 453,08; 2183,636;  676,878;    0,000;1506,75817
 453,24; 1373,275;  -30,201;    0,000;1403,47562
 453,40; 1799,958;  182,882;    0,000;1617,07618
 453,57; 1941,736;  426,783;    0,000;1514,95356
 453,73; 2078,226;  558,840;    0,000;1519,38632
 453,89; 1309,079; -223,212;    0,000;1532,29101
 454,05; 1802,422;  314,851;    0,000;1487,57093
 454,22; 1711,030;  295,829;    0,000;1415,20172
 454,38; 1987,419;  656,808;    0,000;1330,61165
 454,54; 1757,203;  339,853;    0,000;1417,35008
 454,70; 1167,342; -180,226;    0,000;1347,56754
 454,87; 1812,690;  479,751;    0,000;1332,93860
 455,03; 2386,293;  725,815;    0,000;1660,47824
 455,19; 1493,497; -265,043;    0,000;1758,54071
 455,35; 1816,652;  239,850;    0,000;1576,80150
 455,52; 2473,246;  900,726;    0,000;1572,52080
 455,68; 1872,221;  385,926;    0,000;1486,29518
 455,84; 1749,515;  135,914;    0,000;1613,60086
 456,00; 1765,783;  266,814;    0,000;1498,96853
 456,17; 2202,218;  726,767;    0,000;1475,45094
 456,33; 2236,535;  585,742;    0,000;1650,79286
 456,49; 1636,924;  -54,221;    0,000;1691,14527
 456,65; 1524,201;  -54,133;    0,000;1578,33327
 456,81; 2372,924;  591,779;    0,000;1781,14527
 456,98; 1465,440; -267,133;    0,000;1732,57356
 457,14; 2403,108;  635,862;    0,000;1767,24583
 457,30; 2361,734;  168,855;    0,000;2192,87923
 457,46; 2151,035;  427,800;    0,000;1723,23533
 457,63; 2685,623;  759,834;    0,000;1925,78916
 457,79; 2462,084;  508,817;    0,000;1953,26711
 457,95; 2216,670;  -12,077;    0,000;2228,74660
 458,11; 3323,416;  916,707;    0,000;2406,70988
 458,28; 2554,094;  651,760;    0,000;1902,33435
 458,44; 1551,767;  126,842;    0,000;1424,92519
 458,60; 1324,662;   45,908;    0,000;1278,75370
 458,76; 1579,713;  376,854;    0,000;1202,85980
 458,92; 1660,476;  447,898;    0,000;1212,57880
 459,09; 1122,435;  -59,105;    0,000;1181,53994
 459,25; 1168,919; -167,192;    0,000;1336,11165
 459,41; 1698,458;  405,882;    0,000;1292,57618
 459,57; 1786,500;  541,942;    0,000;1244,55752
 459,74; 1182,396;  -61,179;    0,000;1243,57540
 459,90; 1410,340;  129,904;    0,000;1280,43568
 460,06; 1651,051;  454,772;    0,000;1196,27867
 460,22; 1572,306;  432,801;    0,000;1139,50477
 460,38; 1072,649;  -68,136;    0,000;1140,78469
 460,55; 1172,257;  -37,101;    0,000;1209,35795
 460,71; 2306,239;  967,768;    0,000;1338,47037
 460,87; 1549,588;  317,034;    0,000;1232,55383
 461,03; 1172,721;  -33,189;    0,000;1205,91023
 461,20; 1337,216;  171,897;    0,000;1165,31909
 461,36; 1068,610;  -98,095;    0,000;1166,70511
 461,52; 2099,283;  907,757;    0,000;1191,52605
 461,68; 1937,503;  402,986;    0,000;1534,51681
 461,84; 1803,252;  192,870;    0,000;1610,38185
 462,01; 1728,528;  336,843;    0,000;1391,68491
 462,17; 1660,363;  434,776;    0,000;1225,58697
 462,33; 1334,781;   18,886;    0,000;1315,89419
 462,49; 1715,446;   74,896;    0,000;1640,54965
 462,66; 2358,987;  556,840;    0,000;1802,14604
 462,82; 2811,453;  679,853;    0,000;2131,60008
 462,98; 2134,525;  143,857;    0,000;1990,66810
 463,14; 3226,497;  246,841;    0,000;2979,65576
 463,30; 4177,927;  751,823;    0,000;3426,10455
 463,47; 3739,660;  519,980;    0,000;3219,67936
 463,63; 2089,934;  170,664;    0,000;1919,27003
 463,79; 1404,342;   57,890;    0,000;1346,45249
 463,95; 1745,517;  551,842;    0,000;1193,67519
 464,11; 1448,628;  319,863;    0,000;1128,76526
 464,28; 1076,986;  -13,217;    0,000;1090,20356
 464,44; 1752,236;  348,783;    0,000;1403,45356
 464,60; 1437,832;  289,832;    0,000;1148,00030
 464,76; 1677,177;  407,707;    0,000;1269,46960
 464,92; 1396,381;  116,849;    0,000;1279,53207
 465,09; 1766,133;  494,777;    0,000;1271,35640
 465,25; 1959,504;  620,798;    0,000;1338,70619
 465,41; 2193,368;  662,863;    0,000;1530,50554
 465,57; 1343,778;   62,785;    0,000;1280,99243
 465,73; 1205,196;   19,896;    0,000;1185,29965
 465,90; 1620,597;  291,861;    0,000;1328,73611
 466,06; 2234,907;  641,879;    0,000;1593,02760
 466,22; 1744,244;  143,855;    0,000;1600,38895
 466,38; 1576,894;  102,893;    0,000;1474,00107
 466,54; 1549,912;  272,851;    0,000;1277,06122
 466,71; 1774,299;  377,902;    0,000;1396,39682
 466,87; 1572,966;  213,897;    0,000;1359,06909
 467,03; 1647,180;  135,866;    0,000;1511,31384
 467,19; 1951,631;  449,907;    0,000;1501,72455
 467,35; 1629,754;  245,798;    0,000;1383,95619
 467,52; 1205,680; -138,192;    0,000;1343,87136
 467,68; 1505,935;  342,895;    0,000;1163,03994
 467,84; 1499,420;  198,865;    0,000;1300,55412
 468,00; 2081,786;  640,915;    0,000;1440,87029
 468,16; 1767,530;  191,771;    0,000;1575,75924
 468,32; 2083,469;  258,883;    0,000;1824,58590
 468,49; 2215,621;  485,848;    0,000;1729,77235
 468,65; 1901,038;  404,901;    0,000;1496,13710
 468,81; 1547,123;  134,834;    0,000;1412,28916
 468,97; 1154,445;  -98,220;    0,000;1252,66470
 469,13; 1863,507;  513,726;    0,000;1349,78052
 469,30; 1406,237;  156,956;    0,000;1249,28100
 469,46; 1074,381;  -35,151;    0,000;1109,53207
 469,62; 1223,783;   28,814;    0,000;1194,96853
 469,78; 1387,360;  289,732;    0,000;1097,62768
 469,94;  749,352; -245,167;    0,000;994,51973
 470,10; 1024,842; -131,168;    0,000;1156,01001
 470,27; 1132,914; -162,221;    0,000;1295,13555
 470,43; 1366,579;  278,730;    0,000;1087,84853
 470,59; 1766,407;  588,937;    0,000;1177,47008
 470,75; 1212,665;   49,894;    0,000;1162,77050
 470,91; 1377,618;   15,805;    0,000;1361,81306
 471,08; 1580,801;  183,888;    0,000;1396,91363
 471,24; 2047,438;  760,823;    0,000;1286,61427
 471,40; 1250,584;    6,817;    0,000;1243,76711
 471,56; 1143,832;  -69,111;    0,000;1212,94277
 471,72; 1765,267;  396,842;    0,000;1368,42519
 471,88; 2250,090;  535,904;    0,000;1714,18568
 472,05; 1525,610; -139,095;    0,000;1664,70511
 472,21; 1551,466;  -71,103;    0,000;1622,56909
 472,37; 2026,708;  285,882;    0,000;1740,82618
 472,53; 1669,036;  335,915;    0,000;1333,12029
 472,69; 1190,739;  -75,174;    0,000;1265,91285
 472,85; 1776,643;  397,720;    0,000;1378,92364
 473,02; 1676,840;  408,904;    0,000;1267,93568
 473,18; 1671,446;  518,954;    0,000;1152,49213
 473,34; 1066,471;  -91,189;    0,000;1157,66023
 473,50; 1313,693;  181,910;    0,000;1131,78284
 473,66; 1316,231;  245,869;    0,000;1070,36242
 473,82; 1693,002;  463,755;    0,000;1229,24690
 473,99; 1029,646; -154,121;    0,000;1183,76788
 474,15; 1250,775;  -56,143;    0,000;1306,91810
 474,31; 1739,706;  457,896;    0,000;1281,80937
 474,47; 2088,919;  842,808;    0,000;1246,11165
 474,63; 1290,273;  -29,071;    0,000;1319,34376
 474,79; 1299,762;  182,871;    0,000;1116,89157
 474,95; 1652,252;  436,813;    0,000;1215,43938
 475,12; 1571,340;  386,904;    0,000;1184,43568
 475,28; 1341,188;  121,881;    0,000;1219,30675
 475,44; 1194,103;   90,890;    0,000;1103,21221
 475,60; 1499,703;  327,853;    0,000;1171,85008
 475,76; 1723,214;  531,969;    0,000;1191,24475
 475,92; 1219,218;   15,767;    0,000;1203,45094
 476,09;  965,786; -119,027;    0,000;1084,81277
 476,25; 1823,265;  533,972;    0,000;1289,29334
 476,41; 1570,517;  247,842;    0,000;1322,67519
 476,57; 1537,543;  238,815;    0,000;1298,72824
 476,73; 1496,912;  205,793;    0,000;1291,11874
 476,89; 1947,912;  716,851;    0,000;1231,06122
 477,05; 1663,203;  490,911;    0,000;1172,29256
 477,22; 1584,525;  346,857;    0,000;1237,66810
 477,38; 1345,943;  144,968;    0,000;1200,97532
 477,54; 1365,182;  193,852;    0,000;1171,33065
 477,70; 1753,873;  497,892;    0,000;1255,98164
 477,86; 1165,546;  -68,142;    0,000;1233,68753
 478,02; 1447,922;   12,909;    0,000;1435,01341
 478,18; 2020,020;  628,828;    0,000;1391,19200
 478,35; 1468,871;   52,848;    0,000;1416,02235
 478,51; 1591,082;  287,774;    0,000;1303,30782
 478,67; 1243,165;   31,894;    0,000;1211,27050
 478,83; 1682,051;  430,888;    0,000;1251,16363
 478,99; 2038,076;  717,745;    0,000;1320,33172
 479,15; 1677,020;  372,886;    0,000;1304,13448
 479,31; 1349,005;   21,856;    0,000;1327,14866
 479,48; 1902,922;  520,909;    0,000;1382,01341
 479,64; 2183,809;  580,787;    0,000;1603,02158
 479,80; 1630,538;   43,843;    0,000;1586,69462
 479,96; 1302,762;  -12,187;    0,000;1314,94909
 480,12; 1121,924;  -28,279;    0,000;1150,20279
 480,28; 1710,471;  559,868;    0,000;1150,60271
 480,44; 1270,917;  162,880;    0,000;1108,03731
 480,61; 1624,304;  343,873;    0,000;1280,43044
 480,77; 1325,352;  -37,225;    0,000;1362,57725
 480,93; 1579,247;  235,841;    0,000;1343,40576
 481,09; 1467,007;   98,784;    0,000;1368,22300
 481,25; 1291,585;  -23,125;    0,000;1314,70958
 481,41; 2105,280;  810,829;    0,000;1294,45172
 481,57; 1834,595;  658,818;    0,000;1175,77682
 481,73; 1122,432;  -31,148;    0,000;1153,58065
 481,90; 1136,510;   -3,115;    0,000;1139,62476
 482,06; 1103,018;   26,958;    0,000;1076,06015
 482,22; 1990,221;  576,868;    0,000;1413,35271
 482,38; 1565,357;   75,746;    0,000;1489,61087
 482,54; 1394,484;   73,797;    0,000;1320,68675
 482,70; 1872,064;  710,874;    0,000;1161,19015
 482,86; 1881,891;  572,849;    0,000;1309,04178
 483,02; 1309,915;   32,894;    0,000;1277,02050
 483,19; 1954,474;  315,912;    0,000;1638,56199
 483,35; 2066,386;  467,763;    0,000;1598,62321
 483,51; 1543,773;  180,929;    0,000;1362,84376
 483,67; 1458,649;   14,864;    0,000;1443,78469
 483,83; 1762,345;  151,818;    0,000;1610,52682
 483,99; 2005,218;  668,825;    0,000;1336,39342
 484,15; 2340,589;  779,789;    0,000;1560,80073
 484,31; 1618,017;  -55,158;    0,000;1673,17519
 484,47; 1649,669;  154,808;    0,000;1494,86165
 484,64; 2071,504;  592,741;    0,000;1478,76371
 484,80; 2327,361;  605,963;    0,000;1721,39759
 484,96; 2011,886;  -11,122;    0,000;2023,00817
 485,12; 1887,953;  207,853;    0,000;1680,10008
 485,28; 1993,174;  297,779;    0,000;1695,39527
 485,44; 2908,662;  765,851;    0,000;2142,81122
 485,60; 4211,085;  125,933;    0,000;4085,15206
 485,76;10708,386;  395,936;    0,000;10312,45064
 485,92;35942,891;  622,849;    0,000;35320,04178
 486,09;62631,461; 1184,868;    0,000;61446,59299
 486,25;62631,216;  399,897;    0,000;62231,31909
 486,41;29176,621;  320,848;    0,000;28855,77235
 486,57; 7626,108;  580,920;    0,000;7045,18830
 486,73; 4069,548;  402,844;    0,000;3666,70434
 486,89; 2332,620;  -25,209;    0,000;2357,82987
 487,05; 2708,281;  223,886;    0,000;2484,39419
 487,21; 2889,254;  512,741;    0,000;2376,51371
 487,37; 3222,407;  623,995;    0,000;2598,41255
 487,54; 1981,489;  -54,116;    0,000;2035,60533
 487,70; 2509,440;  458,924;    0,000;2050,51603
 487,86; 1956,242;  462,870;    0,000;1493,37214
 488,02; 2475,316;  713,802;    0,000;1761,51448
 488,18; 1496,974;  110,854;    0,000;1386,11952
 488,34; 1531,374; -161,051;    0,000;1692,42412
 488,50; 1336,394; -148,223;    0,000;1484,61612
 488,66; 1940,335;  296,933;    0,000;1643,40206
 488,82; 1622,306;  237,859;    0,000;1384,44725
 488,98; 1461,765;   -9,086;    0,000;1470,85086
 489,14; 1286,737;  -28,160;    0,000;1314,89604
 489,31; 1423,350; -134,153;    0,000;1557,50292
 489,47; 1444,088;  122,976;    0,000;1321,11135
 489,63; 1357,525; -165,201;    0,000;1522,72562
 489,79; 1062,486; -162,217;    0,000;1224,70356
 489,95; 2199,100;  693,905;    0,000;1505,19540
 490,11; 1409,335;   25,933;    0,000;1383,40206
 490,27; 1373,023;  -13,071;    0,000;1386,09376
 490,43; 1871,930;  607,751;    0,000;1264,17888
 490,59; 1913,286;  356,915;    0,000;1556,37029
 490,75; 1565,863;   79,949;    0,000;1485,91440
 490,91; 1669,012;   66,755;    0,000;1602,25661
 491,08; 1959,567;  663,860;    0,000;1295,70696
 491,24; 1727,731;  373,811;    0,000;1353,91994
 491,40; 1138,100;  -11,211;    0,000;1149,31044
 491,56; 1313,100;  115,905;    0,000;1197,19540
 491,72; 2074,216;  773,839;    0,000;1300,37661
 491,88; 2111,069;  591,961;    0,000;1519,10873
 492,04; 1336,600;  -96,153;    0,000;1432,75292
 492,20; 1644,670;  133,865;    0,000;1510,80412
 492,36; 1895,827;  482,802;    0,000;1413,02420
 492,52; 2355,036;  658,915;    0,000;1696,12029
 492,68; 2139,002;  -21,187;    0,000;2160,18938
 492,84; 3371,080;  155,904;    0,000;3215,17597
 493,01; 3041,660;  577,923;    0,000;2463,73689
 493,17; 3146,736;  682,783;    0,000;2463,95356
 493,33; 3158,474;   93,912;    0,000;3064,56199
 493,49; 3143,193;  160,968;    0,000;2982,22532
 493,65; 2816,451;  786,925;    0,000;2029,52575
 493,81; 2213,123;  504,892;    0,000;1708,23164
 493,97; 1673,502;   35,813;    0,000;1637,68938
 494,13; 1576,739;   98,884;    0,000;1477,85533
 494,29; 2092,827;  808,976;    0,000;1283,85163
 494,45; 2192,602;  858,775;    0,000;1333,82725
 494,61; 1181,526;  102,973;    0,000;1078,55305
 494,77; 1193,275;   61,915;    0,000;1131,36057
 494,93; 1840,786;  651,973;    0,000;1188,81277
 495,09; 1609,410;  555,923;    0,000;1053,48689
 495,26; 1208,899;  -86,193;    0,000;1295,09221
 495,42; 1936,835;  500,875;    0,000;1435,95958
 495,58; 2157,239;  477,884;    0,000;1679,35533
 495,74; 1651,463;  127,854;    0,000;1523,60980
 495,90; 1439,646;  136,763;    0,000;1302,88293
 496,06; 1239,064;  -13,068;    0,000;1252,13263
 496,22; 1394,149;  326,922;    0,000;1067,22717
 496,38; 1805,670;  598,865;    0,000;1206,80412
 496,54; 1238,059; -185,098;    0,000;1423,15653
 496,70; 1554,074;  115,817;    0,000;1438,25739
 496,86; 2185,082;  767,774;    0,000;1417,30782
 497,02; 1620,858;  314,862;    0,000;1305,99583
 497,18; 1431,989;  -82,116;    0,000;1514,10533
 497,34; 1606,350;   -9,095;    0,000;1615,44540
 497,50; 2097,899;  622,807;    0,000;1475,09221
 497,66; 1557,664;  111,836;    0,000;1445,82803
 497,82; 1881,097;  381,861;    0,000;1499,23611
 497,99; 1297,858; -245,080;    0,000;1542,93830
 498,15; 1895,458;  509,709;    0,000;1385,74875
 498,31; 1660,876;  418,993;    0,000;1241,88340
 498,47;  989,427;  -91,120;    0,000;1080,54703
 498,63; 1257,672;  146,851;    0,000;1110,82093
 498,79; 1168,507;   53,842;    0,000;1114,66547
 498,95; 1425,574;  284,874;    0,000;1140,69987
 499,11; 1094,852;   23,833;    0,000;1071,01973
 499,27; 1223,182;   93,852;    0,000;1129,33065
 499,43; 1538,108;  545,862;    0,000;992,24583
 499,59; 1906,092;  616,832;    0,000;1289,26001
 499,75; 1294,023;    0,929;    0,000;1293,09376
 499,91; 1225,435;  -10,105;    0,000;1235,53994
 500,07; 1320,069;   45,903;    0,000;1274,16625
 500,23; 1573,337;  334,918;    0,000;1238,41887
 500,39; 1200,641; -143,093;    0,000;1343,73426
 500,55; 1166,649; -104,136;    0,000;1270,78469
 500,71; 1883,015;  547,857;    0,000;1335,15838
 500,87; 1856,670;  394,865;    0,000;1461,80412
 501,03; 1596,585;  121,933;    0,000;1474,65206
 501,19; 1747,984; -154,145;    0,000;1902,12923
 501,35; 3013,837;  862,803;    0,000;2151,03392
 501,52; 2286,247;   75,899;    0,000;2210,34823
 501,68; 1885,817;   31,860;    0,000;1853,95696
 501,84; 1122,174; -175,221;    0,000;1297,39527
 502,00; 2194,515;  919,914;    0,000;1274,60086
 502,16; 1194,569;  132,788;    0,000;1061,78129
 502,32;  798,417; -253,236;    0,000;1051,65236
 502,48;  994,750;    7,885;    0,000;986,86504
 502,64; 1660,182;  652,852;    0,000;1007,33065
 502,80;  975,067; -252,083;    0,000;1227,14944
 502,96; 1350,938;   52,823;    0,000;1298,11427
 503,12; 1207,575;  -71,010;    0,000;1278,58482
 503,28;  635,476; -407,102;    0,000;1042,57880
 503,44; 1506,621;  467,906;    0,000;1038,71483
 503,60;  804,314; -163,184;    0,000;967,49767
 503,76;  941,489; -114,174;    0,000;1055,66285
 503,92; 1552,178;  352,938;    0,000;1199,23951
 504,08; 1844,446;  649,896;    0,000;1194,54965
 504,24; 1041,613;  -63,167;    0,000;1104,77945
 504,40;  857,265; -194,086;    0,000;1051,35086
 504,56; 1575,386;  507,878;    0,000;1067,50817
 504,72; 1625,876;  593,820;    0,000;1032,05597
 504,88;  865,015; -134,143;    0,000;999,15838
 505,04;  828,657; -318,121;    0,000;1146,77760
 505,20; 1383,932;  371,794;    0,000;1012,13817
 505,36; 1347,786;  245,915;    0,000;1101,87029
 505,52; 1250,683;  -14,090;    0,000;1264,77313
 505,68; 1183,144;   68,835;    0,000;1114,30859
 505,84; 1292,404;  291,893;    0,000;1000,51079
 506,00; 1724,445;  771,838;    0,000;952,60718
 506,16; 1107,945;  -14,162;    0,000;1122,10718
 506,32; 1402,958;   50,824;    0,000;1352,13370
 506,48; 1904,273;  682,929;    0,000;1221,34376
 506,64; 1849,716;  631,839;    0,000;1217,87661
 506,80; 1447,025;  106,799;    0,000;1340,22562
 506,96;  850,703; -423,032;    0,000;1273,73504
 507,12; 1889,432;  765,794;    0,000;1123,63817
 507,28; 1436,080;  210,904;    0,000;1225,17597
 507,44; 1182,945;   26,838;    0,000;1156,10718
 507,60; 1078,146;  -57,121;    0,000;1135,26788
 507,76; 1509,327;  428,918;    0,000;1080,40916
 507,92; 1584,886;  230,936;    0,000;1353,95064
 508,08; 1705,458;  147,767;    0,000;1557,69122
 508,24; 1331,907;  -45,121;    0,000;1377,02760
 508,40; 1830,643;  385,720;    0,000;1444,92364
 508,56; 1549,889;  421,921;    0,000;1127,96745
 508,72;  919,585;   35,933;    0,000;883,65206
 508,88;  961,955;  -68,277;    0,000;1030,23194
 509,04; 1411,317;  429,917;    0,000;981,39944
 509,20; 1439,144;  440,951;    0,000;998,19355
 509,36;  674,631; -220,209;    0,000;894,83959
 509,52;  661,046; -282,142;    0,000;943,18753
 509,68; 1020,175;  148,895;    0,000;871,28022
 509,84; 1485,285;  666,800;    0,000;818,48533
 510,00;  627,041; -203,171;    0,000;830,21143
 510,16; 1370,322;  297,831;    0,000;1072,49058
 510,32; 1751,327;  705,918;    0,000;1045,40916
 510,48; 1146,090;  101,846;    0,000;1044,24320
 510,64;  874,357;  -60,254;    0,000;934,61087
 510,80; 1078,136;  143,878;    0,000;934,25817
 510,96;  861,347; -172,139;    0,000;1033,48611
 511,12; 1010,770;  112,886;    0,000;897,88448
 511,28; 1267,352;  103,775;    0,000;1163,57725
 511,44; 1015,178; -132,062;    0,000;1147,23951
 511,60; 1323,592;  304,832;    0,000;1018,76001
 511,76; 1661,554;  801,873;    0,000;859,68044
 511,92;  629,209; -233,060;    0,000;862,26866
 512,08;  810,471; -174,189;    0,000;984,66023
 512,24; 1559,644;  644,893;    0,000;914,75107
 512,40; 1295,301;  541,945;    0,000;753,35610
 512,56;  478,234; -346,203;    0,000;824,43675
 512,72;  665,080; -131,096;    0,000;796,17597
 512,88; 1612,136;  825,936;    0,000;786,20064
 513,04; 1790,708;  891,824;    0,000;898,88370
 513,20;  663,987; -158,160;    0,000;822,14604
 513,36;  972,844;   -1,240;    0,000;974,08435
 513,52; 1577,100;  844,732;    0,000;732,36796
 513,68; 1293,466;  454,897;    0,000;838,56909
 513,84;  905,517;  142,785;    0,000;762,73271
 514,00;  750,080; -117,039;    0,000;867,11844
 514,16; 1008,688;   35,881;    0,000;972,80675
 514,32; 1603,747;  553,841;    0,000;1049,90576
 514,48;  748,734; -176,087;    0,000;924,82171
 514,64;  923,710;  -27,248;    0,000;950,95803
 514,80; 1191,966;  417,782;    0,000;774,18413
 514,96; 1662,948;  851,997;    0,000;810,95142
 515,12;  810,515;   13,799;    0,000;796,71590
 515,28;  636,108; -246,196;    0,000;882,30335
 515,44; 1756,832;  740,947;    0,000;1015,88525
 515,60; 1189,750;  130,885;    0,000;1058,86504
 515,76;  683,587; -231,197;    0,000;914,78392
 515,92; 1086,680;  140,866;    0,000;945,81384
 516,08; 1677,600;  705,847;    0,000;971,75292
 516,24; 1466,801;  723,945;    0,000;742,85610
 516,40;  796,857; -134,254;    0,000;931,11087
 516,56; 1088,479;  209,883;    0,000;878,59561
 516,72; 1217,239;  312,826;    0,000;904,41285
 516,88; 1273,925;  244,895;    0,000;1029,03022
 517,04; 1208,162;   66,793;    0,000;1141,36874
 517,20;  719,123; -263,166;    0,000;982,28916
 517,36; 2213,943; 1077,910;    0,000;1136,03284
 517,52; 1229,505;  269,856;    0,000;959,64866
 517,67;  730,249; -147,173;    0,000;877,42257
 517,83;  719,389; -135,136;    0,000;854,52498
 517,99; 1477,925;  524,837;    0,000;953,08774
 518,15; 1247,857;  256,746;    0,000;991,11087
 518,31;  946,891;  121,792;    0,000;825,09931
 518,47;  736,317;  -84,140;    0,000;820,45696
 518,63; 1603,790;  768,771;    0,000;835,01895
 518,79; 1493,234;  623,855;    0,000;869,37923
 518,95;  246,891; -561,093;    0,000;807,98426
 519,11;  998,512;   60,698;    0,000;937,81414
 519,27; 1403,775;  516,857;    0,000;886,91810
 519,43; 1474,626;  491,877;    0,000;982,74845
 519,59; 1045,440;   22,809;    0,000;1022,63108
 519,75; 1020,616; -147,123;    0,000;1167,73873
 519,91; 1225,602;  272,717;    0,000;952,88477
 520,07; 1534,962;  547,839;    0,000;987,12283
 520,23;  634,964; -177,161;    0,000;812,12516
 520,39;  754,217; -173,161;    0,000;927,37749
 520,55; 1471,719;  574,840;    0,000;896,87982
 520,71; 1360,472;  611,840;    0,000;748,63214
 520,87;  663,224;   -7,160;    0,000;670,38447
 521,03;  990,477;  176,840;    0,000;813,63680
 521,18; 1384,729;  653,840;    0,000;730,88912
 521,34; 1376,482;  542,840;    0,000;833,64145
 521,50;  676,734; -187,160;    0,000;863,89378
 521,66;  751,737;  -64,159;    0,000;815,89610
 521,82;  989,739;  200,841;    0,000;788,89843
 521,98; 1443,242;  564,841;    0,000;878,40076
 522,14;  654,994;  -82,159;    0,000;737,15309
 522,30; 1157,496;  281,841;    0,000;875,65541
 522,46;  849,249;   52,841;    0,000;796,40774
 522,62; 1064,751;   67,841;    0,000;996,91007
 522,78;  836,504;  -93,159;    0,000;929,66239
 522,94; 1378,506;  198,842;    0,000;1179,66472
 523,10; 1590,009;  667,842;    0,000;922,16705
 523,26; 1131,761;  335,842;    0,000;795,91937
 523,42;  726,264;   10,842;    0,000;715,42170
 523,58;  661,266;   -5,158;    0,000;666,42403
 523,74; 1307,519;  695,842;    0,000;611,67636
 523,89; 1331,271;  525,842;    0,000;805,42868
 524,05;  662,774;  -15,157;    0,000;677,93101
 524,21;  645,276; -125,157;    0,000;770,43334
 524,37; 1428,029;  711,843;    0,000;716,18566
 524,53; 1758,531;  949,843;    0,000;808,68799
 524,69;  619,284; -100,157;    0,000;719,44032
 524,85;  575,536; -226,157;    0,000;801,69264
 525,01; 1235,788;  541,843;    0,000;693,94497
 525,17; 1496,791;  845,844;    0,000;650,94730
 525,33;  600,293; -128,156;    0,000;728,44962
 525,49;  827,296;  111,844;    0,000;715,45195
 525,65; 1631,798;  635,844;    0,000;995,95428
 525,81; 1338,051;  462,844;    0,000;875,20661
 525,97;  859,553; -126,156;    0,000;985,70893
 526,12; 1008,556;  173,844;    0,000;834,71126
 526,28; 1716,558;  582,845;    0,000;1133,71359
 526,44; 1668,561;  453,845;    0,000;1214,71591
 526,60;  825,813; -202,155;    0,000;1027,96824
 526,76;  806,066;   -5,155;    0,000;811,22057
 526,92; 1582,818;  621,845;    0,000;960,97289
 527,08; 1733,071;  694,845;    0,000;1038,22522
 527,24;  970,823;  -50,155;    0,000;1020,97755
 527,40;  838,826; -107,154;    0,000;945,97988
 527,56;  575,578; -268,154;    0,000;843,73220
 527,72;  843,580;   -1,154;    0,000;844,73453
 527,88;  741,333;  -32,154;    0,000;773,48686
 528,03;  922,585;  130,846;    0,000;791,73918
 528,19; 1287,088;  548,846;    0,000;738,24151
 528,35; 1441,840;  469,846;    0,000;971,99384
 528,51;  487,843; -262,153;    0,000;749,99616
 528,67;  940,845;  161,847;    0,000;778,99849
 528,83; 1028,848;  255,847;    0,000;773,00082
 528,99; 1466,850;  553,847;    0,000;913,00315
 529,15;  716,103;  -24,153;    0,000;740,25547
 529,31;  699,105;  -93,153;    0,000;792,25780
 529,47; 1221,858;  479,847;    0,000;742,01013
 529,63; 1337,610;  565,848;    0,000;771,76245
 529,78;  550,113; -118,152;    0,000;668,26478
 529,94;  979,365;  163,848;    0,000;815,51711
 530,10; 1522,367;  585,848;    0,000;936,51943
 530,26; 1264,870;   83,848;    0,000;1181,02176
 530,42;  843,372;  -98,152;    0,000;941,52409
 530,58;  781,625;   44,848;    0,000;736,77642
 530,74;  537,377; -253,151;    0,000;790,52874
 530,90;  971,380;  282,849;    0,000;688,53107
 531,06;  608,132;  -27,151;    0,000;635,28340
 531,22;  651,635;  -71,151;    0,000;722,78572
 531,37;  971,637;  214,849;    0,000;756,78805
 531,53; 1288,390;  606,849;    0,000;681,54038
 531,69;  713,142;  -24,151;    0,000;737,29270
 531,85;  857,895;  -78,150;    0,000;936,04503
 532,01; 1638,397;  782,850;    0,000;855,54736
 532,17; 1371,150;  558,850;    0,000;812,29969
 532,33;  578,152;   23,850;    0,000;554,30201
 532,49;  827,405;  207,850;    0,000;619,55434
 532,65; 1580,407;  811,850;    0,000;768,55667
 532,81;  774,659;    2,850;    0,000;771,80899
 532,96;  920,162;   59,851;    0,000;860,31132
 533,12;  930,414;  105,851;    0,000;824,56365
 533,28; 1195,667;  410,851;    0,000;784,81597
 533,44; 1254,419;  515,851;    0,000;738,56830
 533,60;  998,422;  137,851;    0,000;860,57063
 533,76;  561,174; -222,149;    0,000;783,32296
 533,92; 1279,677;  535,851;    0,000;743,82528
 534,08; 1149,679;  478,852;    0,000;670,82761
 534,23;  877,682;  116,852;    0,000;760,82994
 534,39;  771,434;   48,852;    0,000;722,58226
 534,55; 1203,687;  593,852;    0,000;609,83459
 534,71; 1163,189;  601,852;    0,000;561,33692
 534,87;  359,942; -194,148;    0,000;554,08924
 535,03;  741,694;   97,852;    0,000;643,84157
 535,19;  965,697;  390,853;    0,000;574,84390
 535,35;  505,699; -155,147;    0,000;660,84623
 535,51;  648,201; -134,147;    0,000;782,34855
 535,66;  770,454;  -21,147;    0,000;791,60088
 535,82; 1122,456;  379,853;    0,000;742,60321
 535,98; 1241,959;  598,853;    0,000;643,10553
 536,14;  558,461;   12,853;    0,000;545,60786
 536,30;  811,464;   46,854;    0,000;764,61019
 536,46; 1096,466;  369,854;    0,000;726,61251
 536,62; 1183,469;  409,854;    0,000;773,61484
 536,78;  673,221;  -46,146;    0,000;719,36717
 536,93;  596,224; -180,146;    0,000;776,36949
 537,09; 1453,226;  521,854;    0,000;931,37182
 537,25; 1559,479;  688,854;    0,000;870,62415
 537,41;  423,981; -270,145;    0,000;694,12648
 537,57;  817,234;   52,855;    0,000;764,37880
 537,73;  848,236;  232,855;    0,000;615,38113
 537,89;  862,238;  192,855;    0,000;669,38346
 538,04;  510,241;    2,855;    0,000;507,38578
 538,20;  362,493; -245,145;    0,000;607,63811
 538,36; 1042,746;  448,855;    0,000;593,89044
 538,52; 1629,998;  683,856;    0,000;946,14276
 538,68;  995,251;  -17,144;    0,000;1012,39509
 538,84;  963,253;   -5,144;    0,000;968,39742
 539,00; 1793,756;  849,856;    0,000;943,89975
 539,16; 1019,258;  347,856;    0,000;671,40207
 539,31;  681,511;   -1,144;    0,000;682,65440
 539,47;  616,263;  -75,144;    0,000;691,40673
 539,63;  973,766;  275,857;    0,000;697,90905
 539,79; 1116,018;  286,857;    0,000;829,16138
 539,95;  734,771;  -65,143;    0,000;799,91371
 540,11;  706,523;  -85,143;    0,000;791,66603
 540,27;  959,526;  334,857;    0,000;624,66836
 540,42; 1198,278;  413,857;    0,000;784,42069
 540,58;  774,030;   69,857;    0,000;704,17302
 540,74;  675,283;  -13,142;    0,000;688,42534
 540,90; 1039,035;  303,858;    0,000;735,17767
 541,06; 1063,538;  474,858;    0,000;588,68000
 541,22;  317,040; -210,142;    0,000;527,18232
 541,37;  459,793;   42,858;    0,000;416,93465
 541,53;  430,795; -220,142;    0,000;650,93698
 541,69; 1471,798;  617,858;    0,000;853,93930
 541,85; 1366,800;  201,859;    0,000;1164,94163
 542,01; 1387,803;  286,859;    0,000;1100,94396
 542,17; 1706,555;  805,859;    0,000;900,69629
 542,33; 1229,058;  401,859;    0,000;827,19861
 542,48;  806,560; -196,141;    0,000;1002,70094
 542,64; 1068,563;  138,859;    0,000;929,70327
 542,80; 1431,065;  677,859;    0,000;753,20559
 542,96; 1543,568;  858,860;    0,000;684,70792
 543,12;  465,820; -186,140;    0,000;651,96025
 543,28;  554,572; -176,140;    0,000;730,71257
 543,43; 1475,825;  507,860;    0,000;967,96490
 543,59; 1226,827;  402,860;    0,000;823,96723
 543,75;  651,330;   29,860;    0,000;621,46956
 543,91;  416,582; -167,140;    0,000;583,72188
 544,07; 1195,335;  758,861;    0,000;436,47421
 544,23; 1014,837;  507,861;    0,000;506,97654
 544,38;  671,090;  103,861;    0,000;567,22886
 544,54;  444,592; -115,139;    0,000;559,73119
 544,70;  976,595;  374,861;    0,000;601,73352
 544,86; 1166,347;  630,861;    0,000;535,48584
 545,02;  321,600; -219,139;    0,000;540,73817
 545,18;  498,852;  -84,138;    0,000;582,99050
 545,33; 1121,855;  610,862;    0,000;510,99282
 545,49;  918,107;  418,862;    0,000;499,24515
 545,65;  699,110;  145,862;    0,000;553,24748
 545,81;  717,362;   95,862;    0,000;621,49981
 545,97; 1398,614;  872,862;    0,000;525,75213
 546,13; 1635,117;  808,862;    0,000;826,25446
 546,28;  467,369;  -74,137;    0,000;541,50679
 546,44;  566,122; -241,137;    0,000;807,25911
 546,60; 1057,124;  446,863;    0,000;610,26144
 546,76; 1223,627;  665,863;    0,000;557,76377
 546,92;  313,129; -175,137;    0,000;488,26609
 547,08;  801,132;  208,863;    0,000;592,26842
 547,23;  757,134;  295,863;    0,000;461,27075
 547,39; 1037,387;  376,864;    0,000;660,52308
 547,55;  148,889; -382,136;    0,000;531,02540
 547,71;  449,142;  -86,136;    0,000;535,27773
 547,87; 1048,394;  554,864;    0,000;493,53006
 548,02; 1549,397;  637,864;    0,000;911,53238
 548,18;  804,149;   68,864;    0,000;735,28471
 548,34;  668,901;   54,864;    0,000;614,03704
 548,50;  978,904;  429,865;    0,000;549,03936
 548,66;  967,906;  446,865;    0,000;521,04169
 548,82;  579,409;   29,865;    0,000;549,54402
 548,97;  422,161; -122,135;    0,000;544,29635
 549,13;  382,664; -156,135;    0,000;538,79867
 549,29;  499,166;  -41,135;    0,000;540,30100
 549,45;  207,919; -312,135;    0,000;520,05333
 549,61;  320,171; -269,134;    0,000;589,30565
 549,76; 1171,924;  491,866;    0,000;680,05798
 549,92; 1573,176;  725,866;    0,000;847,31031
 550,08;  694,929;   59,866;    0,000;635,06263
 550,24;  430,931;  -92,134;    0,000;523,06496
 550,40; 1204,434;  571,866;    0,000;632,56729
 550,55;  786,186;  109,866;    0,000;676,31962
 550,71;  309,439; -304,133;    0,000;613,57194
 550,87;  606,941;   71,867;    0,000;535,07427
 551,03;  692,693;  292,867;    0,000;399,82660
 551,19; 1007,196;  609,867;    0,000;397,32892
 551,34;  296,448;  -72,133;    0,000;368,58125
 551,50;  230,201; -124,133;    0,000;354,33358
 551,66; 1146,953;  676,867;    0,000;470,08590
 551,82; 1075,206;  623,868;    0,000;451,33823
 551,98;  744,458;  205,868;    0,000;538,59056
 552,13;  764,461;  189,868;    0,000;574,59289
 552,29;  975,463;  530,868;    0,000;444,59521
 552,45;  660,966;   99,868;    0,000;561,09754
 552,61;  251,218; -191,132;    0,000;442,34987
 552,77;  621,471;   88,868;    0,000;532,60219
 552,92;  708,723;  227,869;    0,000;480,85452
 553,08;  275,726; -129,131;    0,000;404,85685
 553,24;  168,228; -251,131;    0,000;419,35917
 553,40;  663,481;   -6,131;    0,000;669,61150
 553,56; 1389,733;  592,869;    0,000;796,86383
 553,71; 1231,235;  235,869;    0,000;995,36616
 553,87;  570,238; -132,131;    0,000;702,36848
 554,03;  712,490;   41,870;    0,000;670,62081
 554,19; 1209,993;  565,870;    0,000;644,12314
 554,34;  856,245;  227,870;    0,000;628,37546
 554,50;  664,998;   28,870;    0,000;636,12779
 554,66;  575,000;   45,870;    0,000;529,13012
 554,82; 1048,503;  461,870;    0,000;586,63244
 554,98; 1411,755;  816,870;    0,000;594,88477
 555,13;  569,758; -171,129;    0,000;740,88710
 555,29;  680,010;  -40,129;    0,000;720,13943
 555,45; 1383,263;  751,871;    0,000;631,39175
 555,61;  664,765;  186,871;    0,000;477,89408
 555,77;  -40,232; -431,129;    0,000;390,89641
 555,92;  499,270;   21,871;    0,000;477,39873
 556,08; 1218,272;  672,871;    0,000;545,40106
 556,24; 1026,275;  549,872;    0,000;476,40339
 556,40;  415,777; -170,128;    0,000;585,90571
 556,55; 1015,780;  481,872;    0,000;533,90804
 556,71;  814,282;  465,872;    0,000;348,41037
 556,87;  932,035;  437,872;    0,000;494,16269
 557,03;  477,537;   35,872;    0,000;441,66502
 557,19;  340,290; -103,128;    0,000;443,41735
 557,34; 1106,792;  635,873;    0,000;470,91968
 557,50;  826,045;  458,873;    0,000;367,17200
 557,66;  507,797;  115,873;    0,000;391,92433
 557,82;  377,300; -128,127;    0,000;505,42666
 557,97; 1109,052;  668,873;    0,000;440,17898
 558,13;  914,305;  503,873;    0,000;410,43131
 558,29;  134,307; -316,127;    0,000;450,43364
 558,45;  422,060;   63,874;    0,000;358,18596
 558,60;  905,812;  544,874;    0,000;360,93829
 558,76;  549,314;  225,874;    0,000;323,44062
 558,92;  145,067; -165,126;    0,000;310,19295
 559,08;  413,319;  -86,126;    0,000;499,44527
 559,23;  861,322;  498,874;    0,000;362,44760
 559,39;  482,324;  -90,126;    0,000;572,44993
 559,55;  612,577;    3,875;    0,000;608,70225
 559,71;  498,329; -137,125;    0,000;635,45458
 559,87; 1543,082;  765,875;    0,000;777,20691
 560,02; 1460,834;  674,875;    0,000;785,95923
 560,18;  343,587; -174,125;    0,000;517,71156
 560,34;  799,089;  115,875;    0,000;683,21389
 560,50; 1237,342;  771,875;    0,000;465,46622
 560,65; 1267,344;  818,876;    0,000;448,46854
 560,81;   68,347; -336,124;    0,000;404,47087
 560,97;  332,349; -141,124;    0,000;473,47320
 561,13;  867,102;  158,876;    0,000;708,22552
 561,28; 1011,354;  443,876;    0,000;567,47785
 561,44;  528,106;  107,876;    0,000;420,23018
 561,60;  291,859; -236,124;    0,000;527,98250
 561,76;  693,611;  205,877;    0,000;487,73483
 561,91;  990,364;  544,877;    0,000;445,48716
 562,07;  204,116; -225,123;    0,000;429,23949
 562,23;  591,369;  125,877;    0,000;465,49181
 562,39; 1136,121;  708,877;    0,000;427,24414
 562,54; 1455,374;  902,877;    0,000;552,49647
 562,70;  322,626; -313,123;    0,000;635,74879
 562,86;  551,129;  -11,122;    0,000;562,25112
 563,02; 1020,881;  455,878;    0,000;565,00345
 563,17;  998,384;  491,878;    0,000;506,50577
 563,33;  725,386;   25,878;    0,000;699,50810
 563,49;  359,139; -205,122;    0,000;564,26043
 563,64; 1316,891;  794,878;    0,000;522,01276
 563,80;  984,393;  613,878;    0,000;370,51508
 563,96;  102,646; -235,121;    0,000;337,76741
 564,12;  483,148; -203,121;    0,000;686,26974
 564,27; 1439,901;  737,879;    0,000;702,02206
 564,43;  762,903;  294,879;    0,000;468,02439
 564,59;  428,406;   37,879;    0,000;390,52672
 564,75;  328,408;  -60,121;    0,000;388,52904
 564,90;  717,911;  428,879;    0,000;289,03137
 565,06;  643,663;  298,880;    0,000;344,78370
 565,22;  273,416; -232,120;    0,000;505,53602
 565,38;  593,168;  -67,120;    0,000;660,28835
 565,53; 2237,921; 1284,880;    0,000;953,04068
 565,69; 1443,673;  455,880;    0,000;987,79301
 565,85;  985,426;   77,880;    0,000;907,54533
 566,00;  982,178;  143,880;    0,000;838,29766
 566,16; 1237,931;  314,881;    0,000;923,04999
 566,32; 1126,933;  587,881;    0,000;539,05231
 566,48;  534,685;  -47,119;    0,000;581,80464
 566,63;  638,188;  -61,119;    0,000;699,30697
 566,79; 1149,440;  464,881;    0,000;684,55929
 566,95; 1131,693;  422,881;    0,000;708,81162
 567,11; 1040,695;  308,881;    0,000;731,81395
 567,26;  577,948; -180,118;    0,000;758,06628
 567,42; 1236,200;  711,882;    0,000;524,31860
 567,58; 1334,703;  817,882;    0,000;516,82093
 567,73;  285,205; -118,118;    0,000;403,32326
 567,89;  204,708; -214,118;    0,000;418,82558
 568,05; 1240,960;  584,882;    0,000;656,07791
 568,21; 2200,963;  757,882;    0,000;1443,08024
 568,36; 1435,715;   75,883;    0,000;1359,83256
 568,52;  738,218; -219,117;    0,000;957,33489
 568,68; 1546,720;  517,883;    0,000;1028,83722
 568,83; 2347,223;  699,883;    0,000;1647,33955
 568,99; 1210,975; -124,117;    0,000;1335,09187
 569,15;  905,227;  -84,117;    0,000;989,34420
 569,31; 1435,480;  572,883;    0,000;862,59653
 569,46; 1659,732;  804,884;    0,000;854,84885
 569,62;  881,985; -127,116;    0,000;1009,10118
 569,78; 1237,987;  237,884;    0,000;1000,10351
 569,93; 1211,740;   26,884;    0,000;1184,85583
 570,09; 2109,242;  947,884;    0,000;1161,35816
 570,25; 2257,245;  382,884;    0,000;1874,36049
 570,41; 1494,997;  165,884;    0,000;1329,11282
 570,56; 1532,750;  791,885;    0,000;740,86514
 570,72;  955,502;  316,885;    0,000;638,61747
 570,88;  630,255; -135,115;    0,000;765,36980
 571,03;  816,007;  186,885;    0,000;629,12212
 571,19; 1819,510;  855,885;    0,000;963,62445
 571,35; 1466,512;  585,885;    0,000;880,62678
 571,50;  687,015;   20,885;    0,000;666,12910
 571,66;  539,767;  -48,114;    0,000;587,88143
 571,82;  808,269;  343,886;    0,000;464,38376
 571,98;  401,272;   63,886;    0,000;337,38609
 572,13;  358,524;  -94,114;    0,000;452,63841
 572,29;  653,527;  -52,114;    0,000;705,64074
 572,45; 1771,029;  854,886;    0,000;916,14307
 572,60; 1843,532;  681,886;    0,000;1161,64539
 572,76; 2333,534;  586,887;    0,000;1746,64772
 572,92; 1728,287;   88,887;    0,000;1639,40005
 573,07; 2472,539;  506,887;    0,000;1965,65237
 573,23; 2560,042;  830,887;    0,000;1729,15470
 573,39; 1582,294;   39,887;    0,000;1542,40703
 573,54; 2510,297;  208,887;    0,000;2301,40936
 573,70; 2299,049;  394,887;    0,000;1904,16168
 573,86; 2390,802; 1040,888;    0,000;1349,91401
 574,02; 1611,804;   49,888;    0,000;1561,91634
 574,17; 1512,806;  185,888;    0,000;1326,91866
 574,33; 1405,559;  696,888;    0,000;708,67099
 574,49; 1340,311;  854,888;    0,000;485,42332
 574,64;  250,314; -153,112;    0,000;403,42564
 574,80;  712,316;  118,888;    0,000;593,42797
 574,96; 1206,319;  747,889;    0,000;458,43030
 575,11;  793,321;  303,889;    0,000;489,43263
 575,27;  340,574; -320,111;    0,000;660,68495
 575,43; 1033,826;   24,889;    0,000;1008,93728
 575,58; 2410,579;  423,889;    0,000;1986,68961
 575,74; 2408,331;  327,889;    0,000;2080,44193
 575,90; 2827,084;  292,889;    0,000;2534,19426
 576,05; 2009,086;  187,890;    0,000;1821,19659
 576,21; 1677,839;  512,890;    0,000;1164,94891
 576,37; 1693,341;  585,890;    0,000;1107,45124
 576,52; 1716,844;    6,890;    0,000;1709,95357
 576,68; 1451,096;  131,890;    0,000;1319,20590
 576,84; 1311,848;  474,890;    0,000;836,95822
 576,99;  944,851;  213,890;    0,000;730,96055
 577,15;  873,353; -138,109;    0,000;1011,46288
 577,31; 1720,106;   52,891;    0,000;1667,21520
 577,46; 2757,358;  844,891;    0,000;1912,46753
 577,62; 1765,861;  472,891;    0,000;1292,96986
 577,78; 1793,613;  169,891;    0,000;1623,72218
 577,93; 1720,116;  292,891;    0,000;1427,22451
 578,09; 1465,868;  446,891;    0,000;1018,97684
 578,25; 1998,871;  713,892;    0,000;1284,97916
 578,40; 2351,873;  124,892;    0,000;2226,98149
 578,56; 2730,626;  354,892;    0,000;2375,73382
 578,72; 2369,128;  752,892;    0,000;1616,23615
 578,87; 1720,631;  396,892;    0,000;1323,73847
 579,03; 1734,133;   33,892;    0,000;1700,24080
 579,19; 1731,886;  123,892;    0,000;1607,99313
 579,34; 2304,638;  401,893;    0,000;1902,74545
 579,50; 2222,640;  599,893;    0,000;1622,74778
 579,66; 1113,393;  -13,107;    0,000;1126,50011
 579,81; 1245,395;   50,893;    0,000;1194,50243
 579,97; 1983,148;  604,893;    0,000;1378,25476
 580,13; 1685,900;  336,893;    0,000;1349,00709
 580,28; 1945,903;  354,893;    0,000;1591,00942
 580,44; 2200,655;  156,894;    0,000;2043,76174
 580,60; 2858,658;  903,894;    0,000;1954,76407
 580,75; 1866,910;  301,894;    0,000;1565,01640
 580,91; 1815,413;  428,894;    0,000;1386,51872
 581,07; 4131,665;   98,894;    0,000;4032,77105
 581,22; 6456,918;  824,894;    0,000;5632,02338
 581,38; 5370,420;  903,894;    0,000;4466,52570
 581,54; 3822,423;  379,895;    0,000;3442,52803
 581,69; 3053,425;  343,895;    0,000;2709,53036
 581,85; 3298,177;  605,895;    0,000;2692,28269
 582,01; 2220,430;  311,895;    0,000;1908,53501
 582,16; 2513,182;  168,895;    0,000;2344,28734
 582,32; 1944,935;   47,895;    0,000;1897,03967
 582,47; 1321,437;  242,895;    0,000;1078,54199
 582,63; 1144,940;  476,896;    0,000;668,04432
 582,79;  463,942;    8,896;    0,000;455,04665
 582,94; 1285,195;  125,896;    0,000;1159,29897
 583,10; 2904,447; 1076,896;    0,000;1827,55130
 583,26; 2029,450;  556,896;    0,000;1472,55363
 583,41; 2427,452;   98,896;    0,000;2328,55596
 583,57; 4025,705;  345,896;    0,000;3679,80828
 583,73; 3039,457;  437,897;    0,000;2601,56061
 583,88; 2217,210;  543,897;    0,000;1673,31294
 584,04;  975,712;   14,897;    0,000;960,81526
 584,20;  875,215;  220,897;    0,000;654,31759
 584,35; 1064,217;  545,897;    0,000;518,31992
 584,51; 1156,219;  642,897;    0,000;513,32224
 584,66;  946,472;   60,897;    0,000;885,57457
 584,82; 1559,224;  268,898;    0,000;1290,32690
 584,98; 2099,227;  480,898;    0,000;1618,32923
 585,13; 2520,729;  988,898;    0,000;1531,83155
 585,29;  770,732;   43,898;    0,000;726,83388
 585,45;  492,234;  -44,102;    0,000;536,33621
 585,60;  721,737;  170,898;    0,000;550,83853
 585,76;  920,989;  313,898;    0,000;607,09086
 585,91; 1184,492;  140,899;    0,000;1043,59319
 586,07; 1872,994;  475,899;    0,000;1397,09551
 586,23; 2035,997;  830,899;    0,000;1205,09784
 586,38; 1444,999;  332,899;    0,000;1112,10017
 586,54;  759,502; -150,101;    0,000;909,60249
 586,70; 1565,754;  211,899;    0,000;1353,85482
 586,85; 2600,257;  178,899;    0,000;2421,35715
 587,01; 3459,009; 1030,900;    0,000;2428,10948
 587,16; 1883,011;  176,900;    0,000;1706,11180
 587,32; 1414,514;  302,900;    0,000;1111,61413
 587,48; 1521,516;  618,900;    0,000;902,61646
 587,63; 1767,019;  630,900;    0,000;1136,11878
 587,79; 1251,021; -164,100;    0,000;1415,12111
 587,95; 1104,774;   83,900;    0,000;1020,87344
 588,10;  719,276; -346,099;    0,000;1065,37576
 588,26; 3526,279;  598,901;    0,000;2927,37809
 588,41; 3496,031;   39,901;    0,000;3456,13042
 588,57; 3104,534;  307,901;    0,000;2796,63275
 588,73; 5533,036;  914,901;    0,000;4618,13507
 588,88; 6341,789;  336,901;    0,000;6004,88740
 589,04; 4154,041;  323,901;    0,000;3830,13973
 589,19; 2660,044;  365,902;    0,000;2294,14205
 589,35; 2676,796;  722,902;    0,000;1953,89438
 589,51; 2947,549;  778,902;    0,000;2168,64671
 589,66; 1511,551;  222,902;    0,000;1288,64903
 589,82; 1048,303;  207,902;    0,000;840,40136
 589,97; 1096,056;  159,902;    0,000;936,15369
 590,13; 1665,058;  862,902;    0,000;802,15602
 590,29;  957,311;  -16,097;    0,000;973,40834
 590,44;  950,813;  192,903;    0,000;757,91067
 590,60; 1025,816;  466,903;    0,000;558,91300
 590,75; 1264,568;  535,903;    0,000;728,66532
 590,91; 1154,071;   73,903;    0,000;1080,16765
 591,07; 1051,823;  -98,097;    0,000;1149,91998
 591,22; 1336,576;  544,903;    0,000;791,67230
 591,38; 2136,578;  854,904;    0,000;1281,67463
 591,53; 2620,831;  270,904;    0,000;2349,92696
 591,69; 2113,083;  162,904;    0,000;1950,17929
 591,85; 1585,836;  289,904;    0,000;1295,93161
 592,00; 2217,588;  685,904;    0,000;1531,68394
 592,16;  978,340;   -6,096;    0,000;984,43627
 592,31; 1535,093;  416,904;    0,000;1118,18859
 592,47; 1679,095;  385,905;    0,000;1293,19092
 592,63; 1280,848;  316,905;    0,000;963,94325
 592,78; 1193,100;   63,905;    0,000;1129,19557
 592,94; 2173,353;  210,905;    0,000;1962,44790
 593,09; 3465,105;  298,905;    0,000;3166,20023
 593,25; 2342,858;  558,905;    0,000;1783,95256
 593,41; 1209,110;  104,905;    0,000;1104,20488
 593,56; 1682,863;  303,905;    0,000;1378,95721
 593,72; 3529,615;  381,906;    0,000;3147,70954
 593,87; 3936,118;  768,906;    0,000;3167,21186
 594,03; 1883,870;  105,906;    0,000;1777,96419
 594,18; 1693,123;  339,906;    0,000;1353,21652
 594,34;  804,875; -127,094;    0,000;931,96884
 594,50; 1449,378;  492,906;    0,000;956,47117
 594,65; 1599,130;   90,906;    0,000;1508,22350
 594,81; 2208,882;  312,907;    0,000;1895,97583
 594,96; 2271,135;  442,907;    0,000;1828,22815
 595,12;  952,887;  157,907;    0,000;794,98048
 595,28;  667,390;  146,907;    0,000;520,48281
 595,43;  979,142;  408,907;    0,000;570,23513
 595,59; 1347,395;  454,907;    0,000;892,48746
 595,74; 1690,647;  514,907;    0,000;1175,73979
 595,90; 2048,650;  157,908;    0,000;1890,74211
 596,05; 1263,902;  134,908;    0,000;1128,99444
 596,21; 1604,655;  582,908;    0,000;1021,74677
 596,37; 1299,657;  464,908;    0,000;834,74909
 596,52; 1230,410;    7,908;    0,000;1222,50142
 596,68; 2336,162;  342,908;    0,000;1993,25375
 596,83; 3004,415;  643,908;    0,000;2360,50608
 596,99; 3205,167;  822,909;    0,000;2382,25840
 597,14; 1596,420;  146,909;    0,000;1449,51073
 597,30; 2342,922;  135,909;    0,000;2207,01306
 597,46; 4547,174;  771,909;    0,000;3775,26538
 597,61; 2747,427;  497,909;    0,000;2249,51771
 597,77; 1468,929;  109,909;    0,000;1359,02004
 597,92; 1332,432;  378,909;    0,000;953,52236
 598,08; 3474,684; 1228,910;    0,000;2245,77469
 598,23; 3100,937;  607,910;    0,000;2493,02702
 598,39; 1523,439;  315,910;    0,000;1207,52935
 598,55;  719,692;   76,910;    0,000;642,78167
 598,70; 1306,194;  447,910;    0,000;858,28400
 598,86; 2200,447;  645,910;    0,000;1554,53633
 599,01; 2189,199;  538,910;    0,000;1650,28865
 599,17; 1229,202;   -4,089;    0,000;1233,29098
 599,32; 1644,204;  484,911;    0,000;1159,29331
 599,48;  946,957;  215,911;    0,000;731,04563
 599,63; 1208,209;  621,911;    0,000;586,29796
 599,79;  726,961;  234,911;    0,000;492,05029
 599,95; 1050,714;  604,911;    0,000;445,80262
 600,10; 1544,966;  411,911;    0,000;1133,05494
 600,26; 1707,969;  398,912;    0,000;1309,05727
 600,41;  855,221; -101,088;    0,000;956,30960
 600,57; 1807,474;  605,912;    0,000;1201,56192
 600,72; 1244,976;  511,912;    0,000;733,06425
 600,88;  646,229;    4,912;    0,000;641,31658
 601,03;  988,981;  120,912;    0,000;868,06890
 601,19; 1243,234;  615,912;    0,000;627,32123
 601,34;  832,736;  498,913;    0,000;333,82356
 601,50;  837,489;  288,913;    0,000;548,57589
 601,66; 2415,491;  257,913;    0,000;2157,57821
 601,81; 3838,244;  932,913;    0,000;2905,33054
 601,97; 3569,496;  947,913;    0,000;2621,58287
 602,12; 2647,999;  401,913;    0,000;2246,08519
 602,28; 2335,001;  425,913;    0,000;1909,08752
 602,43; 1992,253;  567,914;    0,000;1424,33985
 602,59; 2513,006;  419,914;    0,000;2093,09217
 602,74; 3142,008;  252,914;    0,000;2889,09450
 602,90; 3076,261;  206,914;    0,000;2869,34683
 603,05; 5851,263;  695,914;    0,000;5155,34916
 603,21; 4877,266;  953,914;    0,000;3923,35148
 603,36; 1977,518;  366,914;    0,000;1610,60381
 603,52;  981,271;    5,915;    0,000;975,35614
 603,68;  600,273;  181,915;    0,000;418,35846
 603,83;  960,026;  533,915;    0,000;426,11079
 603,99;  776,778;  239,915;    0,000;536,86312
 604,14; 1184,031;  318,915;    0,000;865,11544
 604,30; 1079,283;  247,915;    0,000;831,36777
 604,45; 1034,536;  318,915;    0,000;715,62010
 604,61; 1256,538;  225,916;    0,000;1030,62243
 604,76;  926,541; -246,084;    0,000;1172,62475
 604,92; 1197,793;  605,916;    0,000;591,87708
 605,07; 1204,795;  161,916;    0,000;1042,87941
 605,23; 1639,798;  123,916;    0,000;1515,88173
 605,38; 1787,550;  564,916;    0,000;1222,63406
 605,54; 1503,303;  301,916;    0,000;1201,38639
 605,69; 1200,805;  406,917;    0,000;793,88871
 605,85;  636,058;  137,917;    0,000;498,14104
 606,00;  578,560;  161,917;    0,000;416,64337
 606,16; 1250,813;  272,917;    0,000;977,89570
 606,31; 2170,065;  778,917;    0,000;1391,14802
 606,47; 2112,068;  717,917;    0,000;1394,15035
 606,63; 2218,320;  134,917;    0,000;2083,40268
 606,78; 4089,573; 1317,918;    0,000;2771,65500
 606,94; 4051,575;  657,918;    0,000;3393,65733
 607,09; 2052,328;  185,918;    0,000;1866,40966
 607,25; 1563,580;  204,918;    0,000;1358,66198
 607,40; 1295,832;  259,918;    0,000;1035,91431
 607,56;  824,835;  256,918;    0,000;567,91664
 607,71;  849,087;  131,918;    0,000;717,16896
 607,87; 1836,840;  322,919;    0,000;1513,92129
 608,02; 2852,342;  490,919;    0,000;2361,42362
 608,18; 1921,345;  601,919;    0,000;1319,42595
 608,33; 1612,597;  290,919;    0,000;1321,67827
 608,49; 1407,350;  355,919;    0,000;1051,43060
 608,64; 1009,102;  359,919;    0,000;649,18293
 608,80; 1132,355;  282,919;    0,000;849,43525
 608,95; 2167,357;  209,920;    0,000;1957,43758
 609,11; 1956,610;  390,920;    0,000;1565,68991
 609,26; 1209,862;  -55,080;    0,000;1264,94223
 609,42; 2066,865;  451,920;    0,000;1614,94456
 609,57; 1943,867;  207,920;    0,000;1735,94689
 609,73; 1372,620;  196,920;    0,000;1175,69922
 609,88; 1107,872;  221,920;    0,000;885,95154
 610,04;  834,624;  293,921;    0,000;540,70387
 610,19;  276,877;  -17,079;    0,000;293,95620
 610,35;  322,629;  115,921;    0,000;206,70852
 610,50;  629,382;  554,921;    0,000;74,46085
 610,66;  676,134;  366,921;    0,000;309,21318
 610,81;  418,137;  131,921;    0,000;286,21550
 610,97;  345,639;   62,921;    0,000;282,71783
 611,12;  539,392;  210,922;    0,000;328,47016
 611,28;  435,644;   62,922;    0,000;372,72249
 611,43;   54,897; -184,078;    0,000;238,97481
 611,59;   -0,101; -318,078;    0,000;317,97714
 611,74; 1256,152;  277,922;    0,000;978,22947
 611,90; 1859,154;  494,922;    0,000;1364,23179
 612,05; 2692,657;  127,922;    0,000;2564,73412
 612,21; 2244,909;  203,923;    0,000;2040,98645
 612,36; 1279,912;  383,923;    0,000;895,98877
 612,52; 1209,664;  230,923;    0,000;978,74110
 612,67; 1852,416;  367,923;    0,000;1484,49343
 612,83;  935,669;   49,923;    0,000;885,74576
 612,98; 1275,171;  652,923;    0,000;622,24808
 613,14; 1092,924;  303,923;    0,000;789,00041
 613,29; 2398,426;  303,924;    0,000;2094,50274
 613,45; 4179,429;  305,924;    0,000;3873,50506
 613,60; 2468,181;  247,924;    0,000;2220,25739
 613,75; 2018,434;  789,924;    0,000;1228,50972
 613,91;  876,186;   70,924;    0,000;805,26204
 614,06;  905,939;  131,924;    0,000;774,01437
 614,22; 1070,941;  369,924;    0,000;701,01670
 614,37; 1186,444;  475,925;    0,000;710,51903
 614,53;  993,196;   45,925;    0,000;947,27135
 614,68;  806,199;  134,925;    0,000;671,27368
 614,84;  516,201;   96,925;    0,000;419,27601
 614,99;  912,704;  404,925;    0,000;507,77833
 615,15;  907,956;  210,925;    0,000;697,03066
 615,30;  830,958;  282,925;    0,000;548,03299
 615,46; 1071,211;  307,926;    0,000;763,28531
 615,61;  694,463;   93,926;    0,000;600,53764
 615,77;  788,716;   64,926;    0,000;723,78997
 615,92; 1487,218;  334,926;    0,000;1152,29230
 616,08; 2114,971;  585,926;    0,000;1529,04462
 616,23; 1786,973;  581,926;    0,000;1205,04695
 616,38;  928,976;  251,926;    0,000;677,04928
 616,54;  494,728;  151,927;    0,000;342,80160
 616,69; 1130,231;  631,927;    0,000;498,30393
 616,85; 1234,483;  638,927;    0,000;595,55626
 617,00;  420,236; -178,073;    0,000;598,30858
 617,16;  961,238;  177,927;    0,000;783,31091
 617,31; 2431,241;  678,927;    0,000;1752,31324
 617,47; 2213,493;  535,927;    0,000;1677,56556
 617,62; 1160,995;  197,928;    0,000;963,06789
 617,78;  583,998;   14,928;    0,000;569,07022
 617,93;  605,250;  163,928;    0,000;441,32255
 618,09; 1093,503;  400,928;    0,000;692,57487
 618,24; 1626,755;  526,928;    0,000;1099,82720
 618,39;  967,758;  414,928;    0,000;552,82953
 618,55;  922,760;  561,928;    0,000;360,83185
 618,70;  414,513;   89,929;    0,000;324,58418
 618,86; -165,985; -217,071;    0,000;51,08651
 619,01;  541,268;  292,929;    0,000;248,33883
 619,17;  515,270;  323,929;    0,000;191,34116
 619,32; 1019,273;  730,929;    0,000;288,34349
 619,48;  888,525;  185,929;    0,000;702,59582
 619,63; 1849,528;  102,929;    0,000;1746,59814
 619,79; 3142,780;  820,930;    0,000;2321,85047
 619,94; 2141,033;  217,930;    0,000;1923,10280
 620,09; 1315,285;  327,930;    0,000;987,35512
 620,25;  314,787;    2,930;    0,000;311,85745
 620,40;  178,540;  -20,070;    0,000;198,60978
 620,56;  371,792;  105,930;    0,000;265,86210
 620,71;  253,795;   41,930;    0,000;211,86443
 620,87;   44,047; -150,069;    0,000;194,11676
 621,02;  335,800;  233,931;    0,000;101,86909
 621,18;  159,552;   19,931;    0,000;139,62141
 621,33;  684,305;  521,931;    0,000;162,37374
 621,48; -337,693; -361,069;    0,000;23,37607
 621,64;  277,810;  261,931;    0,000;15,87839
 621,79;  673,812;  494,931;    0,000;178,88072
 621,95;  875,315;  364,932;    0,000;510,38305
 622,10; 1215,067;  192,932;    0,000;1022,13537
 622,26; 1774,320;  489,932;    0,000;1284,38770
 622,41; 2777,322;  722,932;    0,000;2054,39003
 622,56; 1403,825;  295,932;    0,000;1107,89236
 622,72;  506,077;  -64,068;    0,000;570,14468
 622,87; 1475,329;  604,932;    0,000;870,39701
 623,03; 1228,582;  394,933;    0,000;833,64934
 623,18;  402,584; -152,067;    0,000;554,65166
 623,34;  955,837;  383,933;    0,000;571,90399
 623,49; 1026,839;  224,933;    0,000;801,90632
 623,64; 1396,842;   49,933;    0,000;1346,90864
 623,80; 1887,594;  411,933;    0,000;1475,66097
 623,95; 1039,847;  201,933;    0,000;837,91330
 624,11;  378,099;   10,934;    0,000;367,16563
 624,26;  -28,648; -186,066;    0,000;157,41795
 624,42;  232,104;    1,934;    0,000;230,17028
 624,57;  619,607;   37,934;    0,000;581,67261
 624,72;  742,859;  281,934;    0,000;460,92493
 624,88;  368,362;  -27,066;    0,000;395,42726
 625,03;  463,864;  219,934;    0,000;243,92959
 625,19;   23,366;  -51,065;    0,000;74,43191
 625,34;  -40,881;  -68,065;    0,000;27,18424
 625,49;  400,621;  362,935;    0,000;37,68657
 625,65; -202,876; -305,065;    0,000;102,18890
 625,80;  405,376;  205,935;    0,000;199,44122
 625,96;  547,879;  310,935;    0,000;236,94355
 626,11;  568,131;  105,935;    0,000;462,19588
 626,27;  337,634;    7,936;    0,000;329,69820
 626,42;  108,136;  -53,064;    0,000;161,20053
 626,57;  704,639;  369,936;    0,000;334,70286
 626,73;  694,891;  344,936;    0,000;349,95518
 626,88;  294,894;   39,936;    0,000;254,95751
 627,04;  533,146;   73,936;    0,000;459,20984
 627,19; 1000,899;  549,936;    0,000;450,96216
 627,34; 1252,401;  498,937;    0,000;753,46449
 627,50; 1112,404;  150,937;    0,000;961,46682
 627,65;  958,656;   53,937;    0,000;904,71915
 627,81;  673,908;  169,937;    0,000;503,97147
 627,96;  342,411;   36,937;    0,000;305,47380
 628,11;  349,163;  113,937;    0,000;235,22613
 628,27;  357,166;   30,937;    0,000;326,22845
 628,42;  360,918; -132,062;    0,000;492,98078
 628,58;  620,921;  298,938;    0,000;321,98311
 628,73;  358,923;   90,938;    0,000;267,98543
 628,88;  267,176;   -5,062;    0,000;272,23776
 629,04;  386,928;  203,938;    0,000;182,99009
 629,19;  414,681;  277,938;    0,000;136,74242
 629,35;   -1,567;  -46,062;    0,000;44,49474
 629,50;   88,436;  -35,061;    0,000;123,49707
 629,65;  434,938;  155,939;    0,000;278,99940
 629,81; 1366,691;  523,939;    0,000;842,75172
 629,96;  902,693;  165,939;    0,000;736,75405
 630,12;  965,696;  260,939;    0,000;704,75638
 630,27; 1168,448;  612,939;    0,000;555,50870
 630,42;  482,450;  219,939;    0,000;262,51103
 630,58;  196,703;   12,940;    0,000;183,76336
 630,73;  -19,045;   30,940;    0,000;-49,98431
 630,89;   70,458;   46,940;    0,000;23,51801
 631,04;  296,710;  143,940;    0,000;152,77034
 631,19; -107,787; -237,060;    0,000;129,27267
 631,35;   48,965; -118,060;    0,000;167,02499
 631,50;  453,218;  213,940;    0,000;239,27732
 631,65;  315,720;   40,941;    0,000;274,77965
 631,81;  151,723;  -57,059;    0,000;208,78197
 631,96;  201,225;   16,941;    0,000;184,28430
 632,12;  523,978;  297,941;    0,000;226,03663
 632,27;  450,230;  202,941;    0,000;247,28896
 632,42;  401,733;   88,941;    0,000;312,79128
 632,58; 1063,735;  132,941;    0,000;930,79361
 632,73; 1268,987;  274,942;    0,000;994,04594
 632,88; 1511,990;  320,942;    0,000;1191,04826
 633,04;  757,492;   87,942;    0,000;669,55059
 633,19;  593,745;   33,942;    0,000;559,80292
 633,35;  700,997;  420,942;    0,000;280,05524
 633,50;  398,750;  200,942;    0,000;197,80757
 633,65;  192,002;   58,942;    0,000;133,05990
 633,81;  436,755;  157,943;    0,000;278,81223
 633,96;  860,257;  245,943;    0,000;614,31455
 634,11;  421,010;   49,943;    0,000;371,06688
 634,27;   66,262; -167,057;    0,000;233,31921
 634,42;   79,015;   40,943;    0,000;38,07153
 634,58;  804,017;  357,943;    0,000;446,07386
 634,73;  349,020;  136,943;    0,000;212,07619
 634,88;  440,772;  327,944;    0,000;112,82851
 635,04;  278,525;  129,944;    0,000;148,58084
 635,19;  322,527;  238,944;    0,000;83,58317
 635,34;  203,029;   66,944;    0,000;136,08550
 635,50;   83,032;  -75,056;    0,000;158,08782
 635,65;  108,034;   35,944;    0,000;72,09015
 635,80;  166,787;  165,944;    0,000; 0,84248
 635,96;  636,789;  414,945;    0,000;221,84480
 636,11;  423,542;  -10,055;    0,000;433,59713
 636,27;  646,294;  155,945;    0,000;490,34946
 636,42;  859,547;  386,945;    0,000;472,60178
 636,57;  349,799;   96,945;    0,000;252,85411
 636,73;  125,302;   -6,055;    0,000;131,35644
 636,88;  239,804;   68,945;    0,000;170,85876
 637,03;  339,057;  174,946;    0,000;164,11109
 637,19;  544,809;  410,946;    0,000;133,86342
 637,34;  396,312;  248,946;    0,000;147,36575
 637,49;  194,064;  -23,054;    0,000;217,11807
 637,65;  387,317;  292,946;    0,000;94,37040
 637,80;  202,819;   14,946;    0,000;187,87273
 637,95;  342,821;   33,946;    0,000;308,87505
 638,11;  158,824; -108,053;    0,000;266,87738
 638,26;  326,576;  158,947;    0,000;167,62971
 638,41;  155,079;   55,947;    0,000;99,13203
 638,57; -141,669; -188,053;    0,000;46,38436
 638,72;  170,834;   50,947;    0,000;119,88669
 638,87;  474,836;  364,947;    0,000;109,88902
 639,03;  428,089;  298,947;    0,000;129,14134
 639,18;  -91,409; -253,052;    0,000;161,64367
 639,34;  301,844;  205,948;    0,000;95,89600
 639,49;  420,846;  239,948;    0,000;180,89832
 639,64;    8,599; -246,052;    0,000;254,65065
 639,80;  542,101;  217,948;    0,000;324,15298
 639,95;  284,854; -133,052;    0,000;417,90530
 640,10;  366,356;  331,948;    0,000;34,40763
 640,26;  373,859;  141,949;    0,000;231,90996
 640,41;  -55,889; -216,051;    0,000;160,16229
 640,56;  134,113;    4,949;    0,000;129,16461
 640,72;  208,366;  137,949;    0,000;70,41694
 640,87;  260,118;  253,949;    0,000; 6,16927
 641,02;  230,871;   51,949;    0,000;178,92159
 641,18;   62,623;  -94,051;    0,000;156,67392
 641,33;  191,626;  -19,050;    0,000;210,67625
 641,48;  256,128;  200,950;    0,000;55,17857
 641,64;  124,631;  109,950;    0,000;14,68090
 641,79;  338,383;   93,950;    0,000;244,43323
 641,94;  128,886;  105,950;    0,000;22,93556
 642,09;  356,388;  231,950;    0,000;124,43788
 642,25; -108,859;  -97,050;    0,000;-11,80979
 642,40;   55,893;   66,951;    0,000;-11,05746
 642,55;  670,146;  461,951;    0,000;208,19486
 642,71; 1181,148;  642,951;    0,000;538,19719
 642,86;  347,650;  -71,049;    0,000;418,69952
 643,01;  100,653;  -91,049;    0,000;191,70184
 643,17;  436,655;  265,951;    0,000;170,70417
 643,32;  867,658;  490,951;    0,000;376,70650
 643,47;  348,660;   83,952;    0,000;264,70883
 643,63;  484,413;  239,952;    0,000;244,46115
 643,78;  207,665;    0,952;    0,000;206,71348
 643,93;  508,918;  212,952;    0,000;295,96581
 644,09;  301,920;    9,952;    0,000;291,96813
 644,24;   58,173;   21,952;    0,000;36,22046
 644,39;  428,675;  306,952;    0,000;121,72279
 644,55;  -42,072; -144,047;    0,000;101,97511
 644,70; -218,070; -207,047;    0,000;-11,02256
 644,85;   17,433;  -47,047;    0,000;64,47977
 645,01; 1100,935;  981,953;    0,000;118,98210
 645,16;   85,438;  -13,047;    0,000;98,48442
 645,31;  381,190;  156,953;    0,000;224,23675
 645,46;   57,442;  -26,047;    0,000;83,48908
 645,62;  363,695;  306,954;    0,000;56,74140
 645,77;  -68,303; -143,046;    0,000;74,74373
 645,92;   -7,800;    3,954;    0,000;-11,75394
 646,08;   34,202;  -60,046;    0,000;94,24838
 646,23;  265,705;   99,954;    0,000;165,75071
 646,38;  -34,293;  -65,046;    0,000;30,75304
 646,54;   38,460;   46,954;    0,000;-8,49464
 646,69;  -53,288; -118,045;    0,000;64,75769
 646,84;  495,465;  338,955;    0,000;156,51002
 646,99;  121,967;  137,955;    0,000;-15,98765
 647,15;  -88,030; -164,045;    0,000;76,01467
 647,30;  209,472;   84,955;    0,000;124,51700
 647,45;  526,475;  399,955;    0,000;126,51933
 647,61;  115,227;   22,955;    0,000;92,27165
 647,76;  299,730;  199,956;    0,000;99,77398
 647,91;  -83,768; -258,044;    0,000;174,27631
 648,06;  283,234;  244,956;    0,000;38,27863
 648,22;  556,987;  413,956;    0,000;143,03096
 648,37;  -92,511; -112,044;    0,000;19,53329
 648,52; -314,758; -278,044;    0,000;-36,71438
 648,68;   84,744;   33,956;    0,000;50,78794
 648,83;  202,747;   51,957;    0,000;150,79027
 648,98;  -16,751;  -18,043;    0,000; 1,29260
 649,14;   85,252;   31,957;    0,000;53,29492
 649,29;  272,754;  223,957;    0,000;48,79725
 649,44;  259,257;  130,957;    0,000;128,29958
 649,59;  243,009;    6,957;    0,000;236,05190
 649,75;  514,762;  370,957;    0,000;143,80423
 649,90;  441,264;  236,958;    0,000;204,30656
 650,05;  477,767;  297,958;    0,000;179,80889
 650,20;  -53,231; -238,042;    0,000;184,81121
 650,36;  148,271;   56,958;    0,000;91,31354
 650,51;    5,774;  -52,042;    0,000;57,81587
 650,66; -222,224; -386,042;    0,000;163,81819
 650,82;  129,529;   19,958;    0,000;109,57052
 650,97; -469,469; -545,041;    0,000;75,57285
 651,12;  545,284;  406,959;    0,000;138,32517
 651,27; -127,464; -262,041;    0,000;134,57750
 651,43;   81,539;   19,959;    0,000;61,57983
 651,58;  299,541;  125,959;    0,000;173,58216
 651,73;  327,294;   27,959;    0,000;299,33448
 651,88;  194,296;  -21,041;    0,000;215,33681
 652,04;    7,799; -142,040;    0,000;149,83914
 652,19;  423,551;  263,960;    0,000;159,59146
 652,34;  -35,946;  -98,040;    0,000;62,09379
 652,50;  357,306;  217,960;    0,000;139,34612
 652,65;   78,559; -118,040;    0,000;196,59844
 652,80;  211,811;   20,960;    0,000;190,85077
 652,95;  259,813;  236,960;    0,000;22,85310
 653,11;  371,316;  234,961;    0,000;136,35543
 653,26;  157,568;  107,961;    0,000;49,60775
 653,41;  103,571;  -11,039;    0,000;114,61008
 653,56;  305,073;   54,961;    0,000;250,11241
 653,72;  547,326;  359,961;    0,000;187,36473
 653,87;  247,578;   -8,039;    0,000;255,61706
 654,02;  739,831;  359,961;    0,000;379,86939
 654,17;  678,833;  330,962;    0,000;347,87171
 654,33;  599,586;  150,962;    0,000;448,62404
 654,48;  537,088;  -69,038;    0,000;606,12637
 654,63; 1421,341;  669,962;    0,000;751,37870
 654,78;  836,593;  200,962;    0,000;635,63102
 654,94; 1246,596;  536,962;    0,000;709,63335
 655,09; 1214,848;  159,962;    0,000;1054,88568
 655,24; 1983,601;  290,963;    0,000;1692,63800
 655,39; 3161,353;  549,963;    0,000;2611,39033
 655,55; 5430,605;  479,963;    0,000;4950,64266
 655,70;11423,858;  402,963;    0,000;11020,89498
 655,85;31500,360;  487,963;    0,000;31012,39731
 656,00;62632,363; 1239,963;    0,000;61392,39964
 656,16;62633,115;57154,963;    0,000;5478,15196
 656,31;62632,368;36712,964;    0,000;25919,40429
 656,46;62633,120; 1900,964;    0,000;60732,15662
 656,61;62632,373; 1390,964;    0,000;61241,40895
 656,77;62633,125; 1227,964;    0,000;61405,16127
 656,92;62632,378;  541,964;    0,000;62090,41360
 657,07;62633,130;  495,964;    0,000;62137,16593
 657,22;62632,383;  526,964;    0,000;62105,41825
 657,38;62633,135;  458,965;    0,000;62174,17058
 657,53;62632,388;  -67,035;    0,000;62699,42291
 657,68;62633,140;  -77,035;    0,000;62710,17523
 657,83;46078,392;  140,965;    0,000;45937,42756
 657,99;62633,145;  212,965;    0,000;62420,17989
 658,14; 3558,147;   27,965;    0,000;3530,18222
 658,29; 4300,400;  -90,035;    0,000;4390,43454
 658,44; 2221,652; -144,034;    0,000;2365,68687
 658,60; 2761,405;  337,966;    0,000;2423,43920
 658,75; 1719,907;   16,966;    0,000;1702,94152
 658,90; 2005,160;  299,966;    0,000;1705,19385
 659,05;  677,412; -574,034;    0,000;1251,44618
 659,20; 1464,915;  101,966;    0,000;1362,94850
 659,36; 1011,667; -158,034;    0,000;1169,70083
 659,51; 1022,670; -172,033;    0,000;1194,70316
 659,66; 1148,422;  158,967;    0,000;989,45549
 659,81; 1259,425;  352,967;    0,000;906,45781
 659,97;  724,927; -122,033;    0,000;846,96014
 660,12;  777,430;  -35,033;    0,000;812,46247
 660,27;  791,932;  -59,033;    0,000;850,96479
 660,42;  722,684;   18,967;    0,000;703,71712
 660,57;  460,187; -279,032;    0,000;739,21945
 660,73;  696,189;   52,968;    0,000;643,22177
 660,88;  641,692;  -73,032;    0,000;714,72410
 661,03;  636,194;  -32,032;    0,000;668,22643
 661,18;  299,947; -216,032;    0,000;515,97876
 661,34;  367,199; -140,032;    0,000;507,23108
 661,49;  594,452;   40,968;    0,000;553,48341
 661,64;  636,954;  138,968;    0,000;497,98574
 661,79;  579,457;  218,969;    0,000;360,48806
 661,94; 1085,209;  481,969;    0,000;603,24039
 662,10;  546,712;   80,969;    0,000;465,74272
 662,25;  591,964;   87,969;    0,000;503,99504
 662,40;  797,217;  285,969;    0,000;511,24737
 662,55;   69,969; -361,031;    0,000;430,99970
 662,70;  463,222;   99,969;    0,000;363,25203
 662,86;  390,724;  -26,030;    0,000;416,75435
 663,01;  381,726; -137,030;    0,000;518,75668
 663,16;    3,729; -401,030;    0,000;404,75901
 663,31;  446,981;   71,970;    0,000;375,01133
 663,46;  519,984;  181,970;    0,000;338,01366
 663,62;  332,736; -110,030;    0,000;442,76599
 663,77;  231,739;  -75,030;    0,000;306,76831
 663,92; -100,509; -470,029;    0,000;369,52064
 664,07;  172,744; -104,029;    0,000;276,77297
 664,22;  118,246;  -98,029;    0,000;216,27530
 664,38;  536,499;  112,971;    0,000;423,52762
 664,53;  358,001;   70,971;    0,000;287,02995
 664,68;  397,504;   62,971;    0,000;334,53228
 664,83;  338,506;    6,971;    0,000;331,53460
 664,98;  206,509;  -69,028;    0,000;275,53693
 665,14;   29,011; -263,028;    0,000;292,03926
 665,29;  358,764;   42,972;    0,000;315,79158
 665,44;   43,516; -100,028;    0,000;143,54391
 665,59;   27,518; -177,028;    0,000;204,54624
 665,74;  178,271;  -58,028;    0,000;236,29857
 665,90;   16,773; -206,028;    0,000;222,80089
 666,05;  252,026;   -6,027;    0,000;258,05322
 666,20;  325,028;   67,973;    0,000;257,05555
 666,35;  297,031;   93,973;    0,000;203,05787
 666,50;  356,033;   86,973;    0,000;269,06020
 666,66;  251,536;   19,973;    0,000;231,56253
 666,81; -202,712; -391,027;    0,000;188,31485
 666,96; -260,709; -505,027;    0,000;244,31718
 667,11;   31,793; -151,026;    0,000;182,81951
 667,26;  176,796;  -78,026;    0,000;254,82183
 667,41;  372,048;  161,974;    0,000;210,07416
 667,57;  424,801;  260,974;    0,000;163,82649
 667,72; -194,947; -433,026;    0,000;238,07882
 667,87;  202,555;  -51,026;    0,000;253,58114
 668,02;  311,808;  -31,026;    0,000;342,83347
 668,17;    5,310; -256,025;    0,000;261,33580
 668,33;  268,563;  151,975;    0,000;116,58812
 668,48;  303,815;  151,975;    0,000;151,84045
 668,63;  311,318;   83,975;    0,000;227,34278
 668,78;  328,820;  188,975;    0,000;139,84510
 668,93;  338,073;   45,975;    0,000;292,09743
 669,08;  296,325;   74,975;    0,000;221,34976
 669,24;  376,328;  201,976;    0,000;174,35209
 669,39;  526,330;  126,976;    0,000;399,35441
 669,54;  226,833; -210,024;    0,000;436,85674
 669,69;  343,585;   33,976;    0,000;309,60907
 669,84;  193,588;  -75,024;    0,000;268,61139
 669,99;  825,340;  353,976;    0,000;471,36372
 670,15;  415,843;  146,976;    0,000;268,86605
 670,30;  195,095;  -18,023;    0,000;213,11837
 670,45;  -58,653; -235,023;    0,000;176,37070
 670,60;  263,850;   76,977;    0,000;186,87303
 670,75;  240,852;  -79,023;    0,000;319,87536
 670,90;  142,855;  -22,023;    0,000;164,87768
 671,06;   39,357;  -35,023;    0,000;74,38001
 671,21;  579,860;  456,977;    0,000;122,88234
 671,36;  276,112;   63,978;    0,000;212,13466
 671,51; -335,885; -555,022;    0,000;219,13699
 671,66;  367,117;  160,978;    0,000;206,13932
 671,81;  219,370;    6,978;    0,000;212,39164
 671,96;  474,122;  247,978;    0,000;226,14397
 672,12;  138,625;  -77,022;    0,000;215,64630
 672,27;   -3,123; -218,022;    0,000;214,89863
 672,42;  406,380;  240,979;    0,000;165,40095
 672,57;  216,632;   10,979;    0,000;205,65328
 672,72;  173,135;   46,979;    0,000;126,15561
 672,87;  159,637;  -39,021;    0,000;198,65793
 673,03;   62,639; -242,021;    0,000;304,66026
 673,18;  212,392;   69,979;    0,000;142,41259
 673,33;  243,394;   77,979;    0,000;165,41491
 673,48;  -77,103; -179,020;    0,000;101,91724
 673,63;  361,399;  160,980;    0,000;200,41957
 673,78;  242,152;   78,980;    0,000;163,17190
 673,93; -169,096; -276,020;    0,000;106,92422
 674,09;   55,407; -109,020;    0,000;164,42655
 674,24;  167,909;   52,980;    0,000;114,92888
 674,39;   85,662;  -44,020;    0,000;129,68120
 674,54; -128,086; -190,019;    0,000;61,93353
 674,69; -174,583; -230,019;    0,000;55,43586
 674,84;  102,669;  -30,019;    0,000;132,68818
 674,99;  164,422;  -28,019;    0,000;192,44051
 675,15;  -62,326; -167,019;    0,000;104,69284
 675,30;  -87,824; -243,019;    0,000;155,19517
 675,45;  148,429; -144,019;    0,000;292,44749
 675,60;  580,681;  200,982;    0,000;379,69982
 675,75;  250,684;   42,982;    0,000;207,70215
 675,90;   85,686;  -96,018;    0,000;181,70447
 676,05;  303,689;  166,982;    0,000;136,70680
 676,20;  257,941;  151,982;    0,000;105,95913
 676,36; -136,056; -189,018;    0,000;52,96145
 676,51;  311,446;  120,982;    0,000;190,46378
 676,66;  -34,301;  -43,017;    0,000; 8,71611
 676,81;  287,951;   94,983;    0,000;192,96843
 676,96;   72,454;  -15,017;    0,000;87,47076
 677,11;  230,456;  -27,017;    0,000;257,47309
 677,26;   50,959;  -17,017;    0,000;67,97542
 677,41;  286,211;  205,983;    0,000;80,22774
 677,57;  -79,286;  -56,017;    0,000;-23,26993
 677,72;  -90,034; -112,016;    0,000;21,98240
 677,87; -249,032; -353,016;    0,000;103,98472
 678,02;  106,721;  -25,016;    0,000;131,73705
 678,17;  -32,527; -172,016;    0,000;139,48938
 678,32;  176,226;   65,984;    0,000;110,24170
 678,47;  -63,772; -187,016;    0,000;123,24403
 678,62;  156,731;   62,984;    0,000;93,74636
 678,78; -118,017; -174,015;    0,000;55,99869
 678,93;   51,236; -104,015;    0,000;155,25101
 679,08;   83,488;   55,985;    0,000;27,50334
 679,23;  198,491;  -32,015;    0,000;230,50567
 679,38;  157,493;  -16,015;    0,000;173,50799
 679,53;  -18,004;  -41,015;    0,000;23,01032
 679,68; -159,252; -151,015;    0,000;-8,23735
 679,83;  304,501;  237,986;    0,000;66,51497
 679,98;  701,253;  614,986;    0,000;86,26730
 680,14; -210,244; -284,014;    0,000;73,76963
 680,29;  292,508;  185,986;    0,000;106,52196
 680,44;  156,510;  -12,014;    0,000;168,52428
 680,59;  -12,987; -226,014;    0,000;213,02661
 680,74;   69,515; -101,014;    0,000;170,52894
 680,89; -279,732; -253,013;    0,000;-26,71874
 681,04;  205,770;   82,987;    0,000;122,78359
 681,19;  118,273;   70,987;    0,000;47,28592
 681,34; -158,225; -325,013;    0,000;166,78824
 681,49;  -22,972; -178,013;    0,000;155,04057
 681,65; -256,470; -335,013;    0,000;78,54290
 681,80;   98,033;  -68,013;    0,000;166,04523
 681,95; -114,465; -241,012;    0,000;126,54755
 682,10;  173,788;  117,988;    0,000;55,79988
 682,25;  319,290;  212,988;    0,000;106,30221
 682,40;  -58,207; -227,012;    0,000;168,80453
 682,55;  274,295;   81,988;    0,000;192,30686
 682,70; -473,203; -518,012;    0,000;44,80919
 682,85;  -85,200; -113,012;    0,000;27,81151
 683,00;  288,802;  130,989;    0,000;157,81384
 683,15;    1,305;  -82,011;    0,000;83,31617
 683,31;  -60,193; -198,011;    0,000;137,81850
 683,46;  106,810;   56,989;    0,000;49,82082
 683,61;  -57,938;  -98,011;    0,000;40,07315
 683,76; -167,935; -289,011;    0,000;121,07548
 683,91;  583,817;  219,989;    0,000;363,82780
 684,06;  281,820;   92,990;    0,000;188,83013
 684,21;  289,322;   52,990;    0,000;236,33246
 684,36;  -52,925; -155,010;    0,000;102,08478
 684,51;   53,327;  -50,010;    0,000;103,33711
 684,66;  -22,670; -116,010;    0,000;93,33944
 684,81;   80,332;  -17,010;    0,000;97,34177
 684,96; -211,915; -334,010;    0,000;122,09409
 685,12;   31,337; -123,009;    0,000;154,34642
 685,27;  151,339;   56,991;    0,000;94,34875
 685,42;   -6,158;  -39,009;    0,000;32,85107
 685,57;   57,094;    0,991;    0,000;56,10340
 685,72;  212,847;  159,991;    0,000;52,85573
 685,87; -139,151; -216,009;    0,000;76,85805
 686,02;  330,102;  272,991;    0,000;57,11038
 686,17;  -33,646; -166,008;    0,000;132,36271
 686,32; -161,893; -393,008;    0,000;231,11503
 686,47;  -61,141; -120,008;    0,000;58,86736
 686,62;  194,112;   14,992;    0,000;179,11969
 686,77;  176,364;  129,992;    0,000;46,37202
 686,92; -129,633; -294,008;    0,000;164,37434
 687,07;  157,119;   52,992;    0,000;104,12667
 687,23; -174,878; -221,007;    0,000;46,12900
 687,38;  283,124;  150,993;    0,000;132,13132
 687,53;  331,377;   19,993;    0,000;311,38365
 687,68;  390,629;  248,993;    0,000;141,63598
 687,83;  265,631;  188,993;    0,000;76,63830
 687,98;  110,384;  -31,007;    0,000;141,39063
 688,13; -394,114; -488,007;    0,000;93,89296
 688,28;  101,639;   -4,006;    0,000;105,64529
 688,43;  114,641;   62,994;    0,000;51,64761
 688,58;  100,394;   -2,006;    0,000;102,39994
 688,73;  291,396;  252,994;    0,000;38,40227
 688,88;  190,649;   43,994;    0,000;146,65459
 689,03;   69,151;   -1,006;    0,000;70,15692
 689,18;  -88,096; -219,006;    0,000;130,90925
 689,33; -141,344; -274,005;    0,000;132,66157
 689,48;  130,409;   77,995;    0,000;52,41390
 689,63; -303,089; -419,005;    0,000;115,91623
 689,79;  194,664;   -7,005;    0,000;201,66856
 689,94;  387,416;  182,995;    0,000;204,42088
 690,09;  -30,831; -111,005;    0,000;80,17321
 690,24;  422,171;  151,995;    0,000;270,17554
 690,39;  129,923;   73,996;    0,000;55,92786
 690,54;  200,926;   94,996;    0,000;105,93019
 690,69;   40,678;    4,996;    0,000;35,68252
 690,84;   23,931; -121,004;    0,000;144,93484
 690,99;  457,433;  269,996;    0,000;187,43717
 691,14; -262,314; -304,004;    0,000;41,68950
 691,29;  -16,562;  -55,004;    0,000;38,44183
 691,44;  270,941;  262,997;    0,000; 7,94415
 691,59; -125,557; -171,003;    0,000;45,44648
 691,74; -139,054; -208,003;    0,000;68,94881
 691,89; -292,552; -382,003;    0,000;89,45113
 692,04;   18,451;  -57,003;    0,000;75,45346
 692,19;  -36,047; -105,003;    0,000;68,95579
 692,34; -127,044;  -41,003;    0,000;-86,04189
 692,49;  372,958;  311,998;    0,000;60,96044
 692,64; -150,790; -216,002;    0,000;65,21277
 692,79;  152,713;   92,998;    0,000;59,71510
 692,94;   48,215;  -54,002;    0,000;102,21742
 693,09;   57,468;   14,998;    0,000;42,46975
 693,24;   82,720;   22,998;    0,000;59,72208
 693,39;  -84,277; -220,002;    0,000;135,72440
 693,54;   -7,775;  -81,001;    0,000;73,22673
 693,69;  -55,522;  -87,001;    0,000;31,47906
 693,85;  491,480;  403,999;    0,000;87,48138
 694,00;   -6,517;  -91,001;    0,000;84,48371
 694,15; -157,265; -197,001;    0,000;39,73604
 694,30;  -89,512; -215,001;    0,000;125,48837
 694,45;  223,240;  218,999;    0,000; 4,24069
 694,60;  197,493;  118,000;    0,000;79,49302
 694,75;  -86,755; -141,000;    0,000;54,24535
 694,90; -110,252; -183,000;    0,000;72,74767
 695,05;  126,250;   67,000;    0,000;59,25000
 695,20;   10,500;  -87,000;    0,000;97,50000
 695,35;  329,750;  156,000;    0,000;173,75000
 695,50;  245,000;   91,000;    0,000;154,00000
 695,65;  -41,750;  -97,000;    0,000;55,25000
 695,80; -183,500; -181,000;    0,000;-2,50000
 695,95;  233,500;  109,000;    0,000;124,50000
 696,10;  162,750;   54,000;    0,000;108,75000
 696,25;  -55,500; -112,000;    0,000;56,50000
 696,40;  153,750;   47,000;    0,000;106,75000
 696,55;   60,750;  -28,000;    0,000;88,75000
 696,70; -191,500; -234,000;    0,000;42,50000
 696,85;  166,000;  186,000;    0,000;-20,00000
 697,00;  510,250;  390,000;    0,000;120,25000
 697,15;  603,500;  582,000;    0,000;21,50000
 697,30;  -73,250;  -94,000;    0,000;20,75000
 697,45;  253,000;  156,000;    0,000;97,00000
 697,60;  -48,500; -163,000;    0,000;114,50000
 697,75; -410,500; -320,000;    0,000;-90,50000
 697,90;  191,750;   77,000;    0,000;114,75000
 698,05; -153,500; -192,000;    0,000;38,50000
 698,20;  -27,000; -110,000;    0,000;83,00000
 698,35; -100,500; -109,000;    0,000; 8,50000
 698,50; -408,250; -418,000;    0,000; 9,75000
 698,65;  223,250;   91,000;    0,000;132,25000
 698,80;  231,750;  132,000;    0,000;99,75000
 698,95;   -1,000; -108,000;    0,000;107,00000
 699,10; -124,250; -197,000;    0,000;72,75000
 699,25;  145,250;   44,000;    0,000;101,25000
 699,40;   84,000;   61,000;    0,000;23,00000
 699,55;  -19,250;   -3,000;    0,000;-16,25000
 699,70; -171,750; -142,000;    0,000;-29,75000
 699,85; -249,250; -324,000;    0,000;74,75000
 700,00;    6,000; -134,000;    0,000;140,00000
 700,15; -335,000; -433,000;    0,000;98,00000
 700,30; 3023,500; 2826,000;    0,000;197,50000
 700,45;  312,250;  170,000;    0,000;142,25000
 700,60;  263,750;  300,000;    0,000;-36,25000
 700,75;  157,500;   56,000;    0,000;101,50000
 700,90;  345,000;  243,000;    0,000;102,00000
 701,05;  101,500;   68,000;    0,000;33,50000
 701,20;   62,750;    1,000;    0,000;61,75000
 701,35;   13,250;  -41,000;    0,000;54,25000
 701,50; -201,000; -222,000;    0,000;21,00000
 701,65;  111,500;   84,000;    0,000;27,50000
 701,80;   70,750;   74,000;    0,000;-3,25000
 701,95;  393,000;  187,000;    0,000;206,00000
 702,10;  200,250;  159,000;    0,000;41,25000
 702,24;   36,000;  -20,000;    0,000;56,00000
 702,39;  129,500;    4,000;    0,000;125,50000
 702,54; -105,750; -174,000;    0,000;68,25000
 702,69; -137,500; -179,000;    0,000;41,50000
 702,84;  -75,750;  -56,000;    0,000;-19,75000
 702,99; -105,500; -122,000;    0,000;16,50000
 703,14;  126,500;   11,000;    0,000;115,50000
 703,29;  170,750;   43,000;    0,000;127,75000
 703,44;   47,500;   19,000;    0,000;28,50000
 703,59; -162,750; -302,000;    0,000;139,25000
 703,74;  232,500;  114,000;    0,000;118,50000
 703,89;  140,750;   35,000;    0,000;105,75000
 704,04; -122,250; -192,000;    0,000;69,75000
 704,19;  266,250;   85,000;    0,000;181,25000
 704,34;   71,000;   42,000;    0,000;29,00000
 704,49;  173,250;  -11,000;    0,000;184,25000
 704,64;   88,500;   30,000;    0,000;58,50000
 704,79;  476,500;  214,000;    0,000;262,50000
 704,94;  277,500;  155,000;    0,000;122,50000
 705,09;  218,500;  141,000;    0,000;77,50000
 705,24; -193,250; -353,000;    0,000;159,75000
 705,39;  271,750;  175,000;    0,000;96,75000
 705,54;  152,500;  104,000;    0,000;48,50000
 705,69;   19,500;  -73,000;    0,000;92,50000
 705,84;   29,750;  -45,000;    0,000;74,75000
 705,99; -124,500; -203,000;    0,000;78,50000
 706,14;    2,000;  -38,000;    0,000;40,00000
 706,28;  -22,750; -104,000;    0,000;81,25000
 706,43;  269,250;  204,000;    0,000;65,25000
 706,58;  169,000;  103,000;    0,000;66,00000
 706,73;   32,750;  -49,000;    0,000;81,75000
 706,88; -261,750; -183,000;    0,000;-78,75000
 707,03;  -68,000; -137,000;    0,000;69,00000
 707,18; -168,750; -236,000;    0,000;67,25000
 707,33; -281,250; -264,000;    0,000;-17,25000
 707,48;  218,250;   95,000;    0,000;123,25000
 707,63; -265,000; -297,000;    0,000;32,00000
 707,78; -194,500; -275,000;    0,000;80,50000
 707,93;  -58,500;  -91,000;    0,000;32,50000
 708,08;  135,500;   36,000;    0,000;99,50000
 708,23; -116,000; -220,000;    0,000;104,00000
 708,38;  131,000;   -1,000;    0,000;132,00000
 708,53;  -29,000;  -69,000;    0,000;40,00000
 708,68;    5,250; -136,000;    0,000;141,25000
 708,82;   56,250;  -29,000;    0,000;85,25000
 708,97; -172,750; -164,000;    0,000;-8,75000
 709,12;  408,750;  262,000;    0,000;146,75000
 709,27;  178,500;  133,000;    0,000;45,50000
 709,42;   70,250;  -21,000;    0,000;91,25000
 709,57; -239,000; -273,000;    0,000;34,00000
 709,72;  269,000;  159,000;    0,000;110,00000
 709,87;  -47,500; -219,000;    0,000;171,50000
 710,02;  122,750;  -15,000;    0,000;137,75000
 710,17; -151,000; -187,000;    0,000;36,00000
 710,32;  305,750;  238,000;    0,000;67,75000
 710,47;  166,500;   63,000;    0,000;103,50000
 710,62;  136,750;   91,000;    0,000;45,75000
 710,77;  -58,750;  -96,000;    0,000;37,25000
 710,91;   14,000;  -39,000;    0,000;53,00000
 711,06;  289,750;   89,000;    0,000;200,75000
 711,21;  278,000;  160,000;    0,000;118,00000
 711,36;  -33,500; -117,000;    0,000;83,50000
 711,51;  171,250;   63,000;    0,000;108,25000
 711,66;   97,000;  -58,000;    0,000;155,00000
 711,81;  258,750;  301,000;    0,000;-42,25000
 711,96;  -30,750; -112,000;    0,000;81,25000
 712,11;  126,500;  142,000;    0,000;-15,50000
 712,26;  -99,250; -177,000;    0,000;77,75000
 712,41;   99,250;  -36,000;    0,000;135,25000
 712,56;   64,250;   18,000;    0,000;46,25000
 712,70;   75,250;   29,000;    0,000;46,25000
 712,85;  162,250;   69,000;    0,000;93,25000
 713,00;  -46,250;  -84,000;    0,000;37,75000
 713,15;  -68,750; -158,000;    0,000;89,25000
 713,30;  -85,000; -108,000;    0,000;23,00000
 713,45; -390,000; -378,000;    0,000;-12,00000
 713,60;   -9,000; -115,000;    0,000;106,00000
 713,75;  165,250;  102,000;    0,000;63,25000
 713,90; -446,500; -608,000;    0,000;161,50000
 714,05;  105,500;  -50,000;    0,000;155,50000
 714,20;  139,750;    0,000;    0,000;139,75000
 714,34;   58,000;  -10,000;    0,000;68,00000
 714,49; -338,500; -406,000;    0,000;67,50000
 714,64;  -24,500; -122,000;    0,000;97,50000
 714,79;  119,250;   -8,000;    0,000;127,25000
 714,94;   10,500;   46,000;    0,000;-35,50000
 715,09;  -32,000; -124,000;    0,000;92,00000
 715,24;  103,000;   55,000;    0,000;48,00000
 715,39;  216,750;  -30,000;    0,000;246,75000
 715,54;  104,500;  -46,000;    0,000;150,50000
 715,68;    9,250;    2,000;    0,000; 7,25000
 715,83;  168,750;  108,000;    0,000;60,75000
 715,98;  130,750;   56,000;    0,000;74,75000
 716,13; -229,500; -247,000;    0,000;17,50000
 716,28;   67,250;  100,000;    0,000;-32,75000
 716,43;  -71,500;  -81,000;    0,000; 9,50000
 716,58;  -75,000; -269,000;    0,000;194,00000
 716,73;   72,250;   18,000;    0,000;54,25000
 716,88;  102,500; -171,000;    0,000;273,50000
 717,02;  215,250;  170,000;    0,000;45,25000
 717,17;   42,750;  -48,000;    0,000;90,75000
 717,32;  -19,500;  -53,000;    0,000;33,50000
 717,47; -106,250; -148,000;    0,000;41,75000
 717,62;  171,500;   66,000;    0,000;105,50000
 717,77;  295,250;  142,000;    0,000;153,25000
 717,92;  230,250;  -14,000;    0,000;244,25000
 718,07;  -29,000; -112,000;    0,000;83,00000
 718,22;  199,000;  -40,000;    0,000;239,00000
 718,36;  141,750;  -28,000;    0,000;169,75000
 718,51;   94,250;  -69,000;    0,000;163,25000
 718,66; -116,500; -238,000;    0,000;121,50000
 718,81;  120,500;   38,000;    0,000;82,50000
 718,96;  291,000;  247,000;    0,000;44,00000
 719,11;   65,000;   90,000;    0,000;-25,00000
 719,26; -242,000; -348,000;    0,000;106,00000
 719,41;  291,750;  107,000;    0,000;184,75000
 719,55;  342,750;  218,000;    0,000;124,75000
 719,70; -146,250; -289,000;    0,000;142,75000
 719,85;  -70,750; -104,000;    0,000;33,25000
 720,00; -171,500; -430,000;    0,000;258,50000
 720,15;  -50,750;  -24,000;    0,000;-26,75000
 720,30; -174,750; -227,000;    0,000;52,25000
 720,45; -338,750; -396,000;    0,000;57,25000
 720,59;  -77,000; -182,000;    0,000;105,00000
 720,74;  -41,750; -168,000;    0,000;126,25000
 720,89;   96,250;  -66,000;    0,000;162,25000
 721,04;   -6,500;  -61,000;    0,000;54,50000
 721,19;   51,500;   -2,000;    0,000;53,50000
 721,34;   67,750;   76,000;    0,000;-8,25000
 721,49; -130,250; -234,000;    0,000;103,75000
 721,63;  -60,250;  -32,000;    0,000;-28,25000
 721,78; -167,250; -225,000;    0,000;57,75000
 721,93;  144,250;   52,000;    0,000;92,25000
 722,08;  229,250;  250,000;    0,000;-20,75000
 722,23;  397,500;  386,000;    0,000;11,50000
 722,38; -152,000; -204,000;    0,000;52,00000
 722,53;  227,750;    8,000;    0,000;219,75000
 722,67;  269,750;  148,000;    0,000;121,75000
 722,82;  339,000;  134,000;    0,000;205,00000
 722,97;   28,750; -261,000;    0,000;289,75000
 723,12;  475,250;  325,000;    0,000;150,25000
 723,27; -496,750; -512,000;    0,000;15,25000
 723,42;  503,250;  385,000;    0,000;118,25000
 723,56; -377,000; -367,000;    0,000;-10,00000
 723,71;  218,500;  128,000;    0,000;90,50000
 723,86;  235,750;   26,000;    0,000;209,75000
 724,01;   11,250; -153,000;    0,000;164,25000
 724,16;  197,000;   34,000;    0,000;163,00000
 724,31;  107,750; -125,000;    0,000;232,75000
 724,46;  113,750;    6,000;    0,000;107,75000
 724,60;  -86,250;  -44,000;    0,000;-42,25000
 724,75;   -8,750;  -31,000;    0,000;22,25000
 724,90;  232,000;   32,000;    0,000;200,00000
 725,05; -274,000; -529,000;    0,000;255,00000
 725,20;  466,250;  168,000;    0,000;298,25000
 725,35;  257,000;  -62,000;    0,000;319,00000
 725,49;  144,000;  -97,000;    0,000;241,00000
 725,64;   72,750;  -12,000;    0,000;84,75000
 725,79;   67,750;  -92,000;    0,000;159,75000
 725,94;  179,250; -106,000;    0,000;285,25000
 726,09;  650,250;  208,000;    0,000;442,25000
 726,23;  299,500;   91,000;    0,000;208,50000
 726,38;  150,250;  -77,000;    0,000;227,25000
 726,53;  129,250;    6,000;    0,000;123,25000
 726,68; -276,750; -408,000;    0,000;131,25000
 726,83;  389,750;    8,000;    0,000;381,75000
 726,98;  166,000;  -78,000;    0,000;244,00000
 727,12;   52,500; -125,000;    0,000;177,50000
 727,27;  121,000;  -24,000;    0,000;145,00000
 727,42;  -23,500;  -82,000;    0,000;58,50000
 727,57;  242,750;  191,000;    0,000;51,75000
 727,72;  215,000;   77,000;    0,000;138,00000
 727,87;  -60,000; -156,000;    0,000;96,00000
 728,01;   20,000; -114,000;    0,000;134,00000
 728,16;  186,000;  176,000;    0,000;10,00000
 728,31;   15,250;  -69,000;    0,000;84,25000
 728,46;  265,250;  135,000;    0,000;130,25000
 728,61;  283,000;   70,000;    0,000;213,00000
 728,75;  136,750; -206,000;    0,000;342,75000
 728,90; -117,000; -212,000;    0,000;95,00000
 729,05;  263,000;   60,000;    0,000;203,00000
 729,20;  262,250;   57,000;    0,000;205,25000
 729,35;   20,750; -166,000;    0,000;186,75000
 729,49;  -57,750; -205,000;    0,000;147,25000
 729,64; -330,250; -445,000;    0,000;114,75000
 729,79;  221,000;   90,000;    0,000;131,00000
 729,94;    8,500; -259,000;    0,000;267,50000
 730,09;  126,500;   19,000;    0,000;107,50000
 730,23; -132,000; -194,000;    0,000;62,00000
 730,38;  110,750;   -1,000;    0,000;111,75000
 730,53;  322,500;   94,000;    0,000;228,50000
 730,68;  413,000;  144,000;    0,000;269,00000
 730,83;  255,500;    6,000;    0,000;249,50000
 730,97;  356,500;  133,000;    0,000;223,50000
 731,12;  341,750;   72,000;    0,000;269,75000
 731,27; -241,750; -363,000;    0,000;121,25000
 731,42;  169,250;  -57,000;    0,000;226,25000
 731,57;  226,750;   67,000;    0,000;159,75000
 731,71;  420,000;  267,000;    0,000;153,00000
 731,86; -301,000; -414,000;    0,000;113,00000
 732,01;   72,750;  -33,000;    0,000;105,75000
 732,16; -139,250; -209,000;    0,000;69,75000
 732,31;  248,750;  176,000;    0,000;72,75000
 732,45;  -35,500; -121,000;    0,000;85,50000
 732,60;  415,500;   36,000;    0,000;379,50000
 732,75;  237,750; -125,000;    0,000;362,75000
 732,90;   43,750;  -84,000;    0,000;127,75000
 733,05;  224,750;  132,000;    0,000;92,75000
 733,19;  571,000;  484,000;    0,000;87,00000
 733,34;  296,250;   84,000;    0,000;212,25000
 733,49;  336,750;  194,000;    0,000;142,75000
 733,64; -180,750; -222,000;    0,000;41,25000
 733,78; -381,750; -453,000;    0,000;71,25000
 733,93;   22,000;   -6,000;    0,000;28,00000
 734,08; -124,000; -169,000;    0,000;45,00000
 734,23; -154,500; -213,000;    0,000;58,50000
 734,38;  186,500;  134,000;    0,000;52,50000
 734,52;  -28,250; -121,000;    0,000;92,75000
 734,67;  286,500;   60,000;    0,000;226,50000
 734,82;  222,000; -153,000;    0,000;375,00000
 734,97;  751,500;  332,000;    0,000;419,50000
 735,11;  -17,750; -231,000;    0,000;213,25000
 735,26;  765,750;  322,000;    0,000;443,75000
 735,41;  455,250;  224,000;    0,000;231,25000
 735,56;   79,000; -204,000;    0,000;283,00000
 735,70;  229,250;   84,000;    0,000;145,25000
 735,85; -162,000; -399,000;    0,000;237,00000
 736,00;  207,500; -105,000;    0,000;312,50000
 736,15; -206,500; -251,000;    0,000;44,50000
 736,30;  136,250;  112,000;    0,000;24,25000
 736,44;  437,500;  281,000;    0,000;156,50000
 736,59;  -70,500; -212,000;    0,000;141,50000
 736,74;  -13,750; -192,000;    0,000;178,25000
 736,89;  -94,250; -158,000;    0,000;63,75000
 737,03;  -57,250;  -43,000;    0,000;-14,25000
 737,18;   12,750;   48,000;    0,000;-35,25000
 737,33;  140,000;  -81,000;    0,000;221,00000
 737,48;   21,250;  -92,000;    0,000;113,25000
 737,62;  110,250;   42,000;    0,000;68,25000
 737,77; -215,750; -316,000;    0,000;100,25000
 737,92;   46,250;  -31,000;    0,000;77,25000
 738,07; -265,000; -379,000;    0,000;114,00000
 738,21; -186,500; -259,000;    0,000;72,50000
 738,36; -143,750; -171,000;    0,000;27,25000
 738,51;   22,000;  -49,000;    0,000;71,00000
 738,66;  117,250;   32,000;    0,000;85,25000
 738,80; -175,500; -209,000;    0,000;33,50000
 738,95; -278,500; -362,000;    0,000;83,50000
 739,10;   -1,000;  -57,000;    0,000;56,00000
 739,25;  127,000;   27,000;    0,000;100,00000
 739,39;  229,500;   11,000;    0,000;218,50000
 739,54;  291,250;  -11,000;    0,000;302,25000
 739,69;  226,250;  120,000;    0,000;106,25000
 739,84;  149,500;  -71,000;    0,000;220,50000
 739,98;   93,250;   -6,000;    0,000;99,25000
 740,13;  375,750;  259,000;    0,000;116,75000
 740,28;    3,500; -105,000;    0,000;108,50000
 740,43;  -34,000; -152,000;    0,000;118,00000
 740,57;  -76,500; -109,000;    0,000;32,50000
 740,72;   48,500;  -71,000;    0,000;119,50000
 740,87; -233,250; -236,000;    0,000; 2,75000
 741,01;   48,750;   35,000;    0,000;13,75000
 741,16;  -72,750; -149,000;    0,000;76,25000
 741,31; -239,250; -193,000;    0,000;-46,25000
 741,46;  253,000;  175,000;    0,000;78,00000
 741,60;  -36,500; -124,000;    0,000;87,50000
 741,75;  165,750;   56,000;    0,000;109,75000
 741,90;  347,750;  241,000;    0,000;106,75000
 742,05;  313,500;  172,000;    0,000;141,50000
 742,19;  231,500;   53,000;    0,000;178,50000
 742,34;  210,500;  161,000;    0,000;49,50000
 742,49; -250,000; -196,000;    0,000;-54,00000
 742,63;   25,750;  -53,000;    0,000;78,75000
 742,78;   70,750;   -2,000;    0,000;72,75000
 742,93;  -54,500;  -75,000;    0,000;20,50000
 743,08;  329,500;  286,000;    0,000;43,50000
 743,22;  117,250;  -31,000;    0,000;148,25000
 743,37; -301,000; -385,000;    0,000;84,00000
 743,52;  111,250;    0,000;    0,000;111,25000
 743,67;   49,250;  -30,000;    0,000;79,25000
 743,81;  110,000;   70,000;    0,000;40,00000
 743,96;   62,000;  134,000;    0,000;-72,00000
 744,11; -135,500; -126,000;    0,000;-9,50000
 744,25;   72,750;   24,000;    0,000;48,75000
 744,40;  394,000;  156,000;    0,000;238,00000
 744,55;  201,500;   99,000;    0,000;102,50000
 744,69;  713,500;  254,000;    0,000;459,50000
 744,84;  519,750;   79,000;    0,000;440,75000
 744,99;  529,750;  197,000;    0,000;332,75000
 745,14; -559,750; -682,000;    0,000;122,25000
 745,28;  228,250;   90,000;    0,000;138,25000
 745,43;   -1,250; -135,000;    0,000;133,75000
 745,58;  164,500;  102,000;    0,000;62,50000
 745,72;  497,500;  288,000;    0,000;209,50000
 745,87;  300,500;   20,000;    0,000;280,50000
 746,02;  -54,750; -293,000;    0,000;238,25000
 746,17;  663,250;  375,000;    0,000;288,25000
 746,31;  293,750;   89,000;    0,000;204,75000
 746,46;  139,750;   -3,000;    0,000;142,75000
 746,61;  502,500;  170,000;    0,000;332,50000
 746,75;  237,500;   24,000;    0,000;213,50000
 746,90;   81,500;   11,000;    0,000;70,50000
 747,05;  175,750;   59,000;    0,000;116,75000
 747,19;  -34,250; -174,000;    0,000;139,75000
 747,34;   80,500;  -46,000;    0,000;126,50000
 747,49;  244,250;   98,000;    0,000;146,25000
 747,63;   21,750; -116,000;    0,000;137,75000
 747,78;  323,000;  153,000;    0,000;170,00000
 747,93;  108,500;   28,000;    0,000;80,50000
 748,08;   62,750;  -49,000;    0,000;111,75000
 748,22;   69,000;  -12,000;    0,000;81,00000
 748,37;  226,750;   52,000;    0,000;174,75000
 748,52; -427,250; -525,000;    0,000;97,75000
 748,66;  185,500;  120,000;    0,000;65,50000
 748,81;  130,500;  -34,000;    0,000;164,50000
 748,96;   83,750;  -14,000;    0,000;97,75000
 749,10;  149,500;   55,000;    0,000;94,50000
 749,25;  286,250;  285,000;    0,000; 1,25000
 749,40;  107,500;   33,000;    0,000;74,50000
 749,54;   88,250;   89,000;    0,000;-0,75000
 749,69;   66,250;  -36,000;    0,000;102,25000
 749,84; -178,250; -187,000;    0,000; 8,75000
 749,98;  384,000;  347,000;    0,000;37,00000
 750,13;  -76,250; -182,000;    0,000;105,75000
 750,28;  284,000;  175,000;    0,000;109,00000
 750,42;  219,250;  134,000;    0,000;85,25000
 750,57;  262,750;   91,000;    0,000;171,75000
 750,72;  163,500;   97,000;    0,000;66,50000
 750,86;  130,750;   80,000;    0,000;50,75000
 751,01;  -49,000;  -65,000;    0,000;16,00000
 751,16;  332,000;  204,000;    0,000;128,00000
 751,30;  166,500;   63,000;    0,000;103,50000
 751,45;  -12,750; -105,000;    0,000;92,25000
 751,60; -137,750; -144,000;    0,000; 6,25000
 751,74; -199,250; -294,000;    0,000;94,75000
 751,89;  359,500;  248,000;    0,000;111,50000
 752,04;  437,500;  172,000;    0,000;265,50000
 752,18;  603,000;  273,000;    0,000;330,00000
 752,33;  668,750;  245,000;    0,000;423,75000
 752,48;  405,250;   79,000;    0,000;326,25000
 752,62;  -83,000; -243,000;    0,000;160,00000
 752,77;  -41,750; -166,000;    0,000;124,25000
 752,92;  172,250;    3,000;    0,000;169,25000
 753,06;  -39,250; -164,000;    0,000;124,75000
 753,21;  -27,000; -136,000;    0,000;109,00000
 753,36;   37,500; -162,000;    0,000;199,50000
 753,50;  188,000;   80,000;    0,000;108,00000
 753,65;   62,750; -143,000;    0,000;205,75000
 753,80;  -32,250; -197,000;    0,000;164,75000
 753,94;   51,000;  -14,000;    0,000;65,00000
 754,09;  150,250;   40,000;    0,000;110,25000
 754,24;   82,250;  -72,000;    0,000;154,25000
 754,38;  245,250;  191,000;    0,000;54,25000
 754,53;   97,750;   63,000;    0,000;34,75000
 754,68; -153,500; -106,000;    0,000;-47,50000
 754,82; -560,750; -692,000;    0,000;131,25000
 754,97; -514,000; -569,000;    0,000;55,00000
 755,11; -163,250; -101,000;    0,000;-62,25000
 755,26; -133,000; -182,000;    0,000;49,00000
 755,41; -164,250; -197,000;    0,000;32,75000
 755,55;  245,500;  111,000;    0,000;134,50000
 755,70; -533,750; -637,000;    0,000;103,25000
 755,85;  290,750;   90,000;    0,000;200,75000
 755,99;   33,500; -205,000;    0,000;238,50000
 756,14;  149,250;   34,000;    0,000;115,25000
 756,29; -112,250; -235,000;    0,000;122,75000
 756,43; -189,500; -180,000;    0,000;-9,50000
 756,58; -168,750; -255,000;    0,000;86,25000
 756,72;   42,000;  -14,000;    0,000;56,00000
 756,87;   59,250;  -47,000;    0,000;106,25000
 757,02;  301,000;  139,000;    0,000;162,00000
 757,16;   -6,500;  -34,000;    0,000;27,50000
 757,31; -107,750; -173,000;    0,000;65,25000
 757,46;  116,000;  -89,000;    0,000;205,00000
 757,60;    1,500; -149,000;    0,000;150,50000
 757,75;   57,000;   35,000;    0,000;22,00000
 757,89;   89,000;   72,000;    0,000;17,00000
 758,04;  103,500;   23,000;    0,000;80,50000
 758,19;  420,000;  222,000;    0,000;198,00000
 758,33;   38,750; -167,000;    0,000;205,75000
 758,48; -270,500; -316,000;    0,000;45,50000
 758,63;  -64,250; -220,000;    0,000;155,75000
 758,77;   -4,000;  -98,000;    0,000;94,00000
 758,92;   71,750;   45,000;    0,000;26,75000
 759,06; -565,250; -585,000;    0,000;19,75000
 759,21;  127,000;   -4,000;    0,000;131,00000
 759,36;  125,250;  -97,000;    0,000;222,25000
 759,50;  321,000;  -81,000;    0,000;402,00000
 759,65;  638,250;  213,000;    0,000;425,25000
 759,79;  421,500;  203,000;    0,000;218,50000
 759,94;  675,000;  549,000;    0,000;126,00000
 760,09;  257,750;   45,000;    0,000;212,75000
 760,23;  391,500;    0,000;    0,000;391,50000
 760,38;  262,000;    0,000;    0,000;262,00000
 760,53;  707,750;  400,000;    0,000;307,75000
 760,67;  122,500;   40,000;    0,000;82,50000
 760,82;  -58,250; -185,000;    0,000;126,75000
 760,96;  -79,250;  -64,000;    0,000;-15,25000
 761,11;  -79,250; -163,000;    0,000;83,75000
 761,26;   56,000;  -28,000;    0,000;84,00000
 761,40; -219,750; -245,000;    0,000;25,25000
 761,55; -209,250; -251,000;    0,000;41,75000
 761,69;  134,750;   41,000;    0,000;93,75000
 761,84;  -55,250; -210,000;    0,000;154,75000
 761,99;  236,000;   57,000;    0,000;179,00000
 762,13;   14,250;  -59,000;    0,000;73,25000
 762,28;  251,750;  101,000;    0,000;150,75000
 762,42;   51,000;   66,000;    0,000;-15,00000
 762,57;  -14,250;  -56,000;    0,000;41,75000
 762,72; -132,250; -184,000;    0,000;51,75000
 762,86;    4,000;  -33,000;    0,000;37,00000
 763,01;  -45,250; -112,000;    0,000;66,75000
 763,15;   74,250;    4,000;    0,000;70,25000
 763,30; -173,500; -276,000;    0,000;102,50000
 763,44; -126,250; -163,000;    0,000;36,75000
 763,59;  305,000;  257,000;    0,000;48,00000
 763,74; -176,250; -125,000;    0,000;-51,25000
 763,88;   60,500;   44,000;    0,000;16,50000
 764,03;   80,000;   93,000;    0,000;-13,00000
 764,17;  209,000;  204,000;    0,000; 5,00000
 764,32;  204,000;  107,000;    0,000;97,00000
 764,47;   51,250;   -1,000;    0,000;52,25000
 764,61;  191,250;   61,000;    0,000;130,25000
 764,76;    7,000;  -56,000;    0,000;63,00000
 764,90;   61,000;  -73,000;    0,000;134,00000
 765,05;    9,000; -135,000;    0,000;144,00000
 765,19;  305,000;  154,000;    0,000;151,00000
 765,34;  -86,000; -208,000;    0,000;122,00000
 765,49;  -22,250; -163,000;    0,000;140,75000
 765,63;   40,500;  -45,000;    0,000;85,50000
 765,78;  334,250;  147,000;    0,000;187,25000
 765,92;  241,000;  -27,000;    0,000;268,00000
 766,07;  -72,250; -145,000;    0,000;72,75000
 766,21;  -20,500; -108,000;    0,000;87,50000
 766,36; -115,750; -214,000;    0,000;98,25000
 766,51;   -9,500;  -85,000;    0,000;75,50000
 766,65;  454,750;  275,000;    0,000;179,75000
 766,80;   28,250;  -59,000;    0,000;87,25000
 766,94;   18,500;   -3,000;    0,000;21,50000
 767,09;  157,250;  101,000;    0,000;56,25000
 767,23;    6,250;  -62,000;    0,000;68,25000
 767,38;  146,250;   55,000;    0,000;91,25000
 767,53;  -13,250;  -99,000;    0,000;85,75000
 767,67;   60,250;  -22,000;    0,000;82,25000
 767,82;   39,000;   59,000;    0,000;-20,00000
 767,96;  133,000;   63,000;    0,000;70,00000
 768,11;   21,000;  -78,000;    0,000;99,00000
 768,25;  175,250;   44,000;    0,000;131,25000
 768,40;  289,250;   96,000;    0,000;193,25000
 768,54;  188,500;   75,000;    0,000;113,50000
 768,69;  -97,500; -222,000;    0,000;124,50000
 768,84; -131,000; -195,000;    0,000;64,00000
 768,98;  361,000;  149,000;    0,000;212,00000
 769,13;  459,750;  136,000;    0,000;323,75000
 769,27;  231,000;  142,000;    0,000;89,00000
 769,42; -403,250; -433,000;    0,000;29,75000
 769,56;    6,000;  -67,000;    0,000;73,00000
 769,71; -126,250; -188,000;    0,000;61,75000
 769,85;  -36,000; -199,000;    0,000;163,00000
 770,00;  -30,000; -133,000;    0,000;103,00000
 770,14; -254,750; -308,000;    0,000;53,25000
 770,29;   82,000;  -66,000;    0,000;148,00000
 770,44;   22,250;  -71,000;    0,000;93,25000
 770,58;   77,750;   38,000;    0,000;39,75000
 770,73;  -59,250;  -86,000;    0,000;26,75000
 770,87;  234,000;  188,000;    0,000;46,00000
 771,02;    5,500;   -2,000;    0,000; 7,50000
 771,16;   37,250; -110,000;    0,000;147,25000
 771,31;  113,500;   30,000;    0,000;83,50000
 771,45;  -33,750;  -73,000;    0,000;39,25000
 771,60;  -80,000; -223,000;    0,000;143,00000
 771,74;  -11,500; -159,000;    0,000;147,50000
 771,89;   -3,500;  -84,000;    0,000;80,50000
 772,03;  -90,750; -151,000;    0,000;60,25000
 772,18;  -99,250; -212,000;    0,000;112,75000
 772,32;  -64,750;  -22,000;    0,000;-42,75000
 772,47;  -99,250; -179,000;    0,000;79,75000
 772,62;  234,750;  226,000;    0,000; 8,75000
 772,76;  288,000;  179,000;    0,000;109,00000
 772,91;   31,250;   -2,000;    0,000;33,25000
 773,05; -114,000; -204,000;    0,000;90,00000
 773,20;   33,000;  -86,000;    0,000;119,00000
 773,34;   94,250;   34,000;    0,000;60,25000
 773,49; -326,000; -465,000;    0,000;139,00000
 773,63;   -1,500;  -40,000;    0,000;38,50000
 773,78;  143,500;   58,000;    0,000;85,50000
 773,92; -144,500; -134,000;    0,000;-10,50000
 774,07;   47,750;    1,000;    0,000;46,75000
 774,21; -188,500; -290,000;    0,000;101,50000
 774,36; -103,000; -172,000;    0,000;69,00000
 774,50; -151,750; -160,000;    0,000; 8,25000
 774,65;  -87,250;  -23,000;    0,000;-64,25000
 774,79;   84,500;   85,000;    0,000;-0,50000
 774,94; -207,500; -193,000;    0,000;-14,50000
 775,08;  264,000;  265,000;    0,000;-1,00000
 775,23; -355,750; -408,000;    0,000;52,25000
 775,37;  -77,000; -121,000;    0,000;44,00000
 775,52; -100,750;  -94,000;    0,000;-6,75000
 775,66;   74,750;    2,000;    0,000;72,75000
 775,81; -254,500; -254,000;    0,000;-0,50000
 775,95; -170,000; -137,000;    0,000;-33,00000
 776,10; -121,500; -161,000;    0,000;39,50000
 776,24;  160,000;  116,000;    0,000;44,00000
 776,39; -309,500; -287,000;    0,000;-22,50000
 776,53;   47,250;  -46,000;    0,000;93,25000
 776,68;   82,500;  -21,000;    0,000;103,50000
 776,82; -127,750; -196,000;    0,000;68,25000
 776,97;   27,750;  -88,000;    0,000;115,75000
 777,11;    8,750;  -73,000;    0,000;81,75000
 777,26;  -53,750; -235,000;    0,000;181,25000
 777,40; -175,250; -322,000;    0,000;146,75000
 777,55; -414,000; -426,000;    0,000;12,00000
 777,69;  104,250;   79,000;    0,000;25,25000
 777,84; -141,750; -169,000;    0,000;27,25000
 777,98;   75,750;   -5,000;    0,000;80,75000
 778,13; -540,250; -557,000;    0,000;16,75000
 778,27;  196,000;  194,000;    0,000; 2,00000
 778,42;  -65,750;  -39,000;    0,000;-26,75000
 778,56; -153,250; -202,000;    0,000;48,75000
 778,71;  201,750;   15,000;    0,000;186,75000
 778,85;  235,750; -120,000;    0,000;355,75000
 779,00; -123,500; -195,000;    0,000;71,50000
 779,14;  -69,000;  -53,000;    0,000;-16,00000
 779,29;  139,250;   81,000;    0,000;58,25000
 779,43; -211,250; -244,000;    0,000;32,75000
 779,58;  -40,000;  -70,000;    0,000;30,00000
 779,72;  423,500;  311,000;    0,000;112,50000
 779,87;   64,500;   -1,000;    0,000;65,50000
 780,01;  348,500;  219,000;    0,000;129,50000
 780,16; -349,000; -346,000;    0,000;-3,00000
 780,30;   55,000;  -42,000;    0,000;97,00000
 780,45;  -57,000; -215,000;    0,000;158,00000
 780,59; -155,750; -148,000;    0,000;-7,75000
 780,73; -190,750; -259,000;    0,000;68,25000
 780,88;  136,250;   68,000;    0,000;68,25000
 781,02;   -4,000;  -99,000;    0,000;95,00000
 781,17;   81,500;  -97,000;    0,000;178,50000
 781,31;  221,500;   92,000;    0,000;129,50000
 781,46;   77,500;   87,000;    0,000;-9,50000
 781,60; -549,500; -618,000;    0,000;68,50000
 781,75;   35,250;  -45,000;    0,000;80,25000
 781,89;  -36,750;  -55,000;    0,000;18,25000
 782,04; -120,250;  -69,000;    0,000;-51,25000
 782,18; -170,750; -213,000;    0,000;42,25000
 782,33;    4,000;  -54,000;    0,000;58,00000
 782,47; -136,000; -163,000;    0,000;27,00000
 782,61;   28,000;   -9,000;    0,000;37,00000
 782,76;  151,500;   93,000;    0,000;58,50000
 782,90;  -25,000; -100,000;    0,000;75,00000
 783,05;  -80,750;  -73,000;    0,000;-7,75000
 783,19;  495,250;  447,000;    0,000;48,25000
 783,34;  -54,500;  -39,000;    0,000;-15,50000
 783,48;   -2,250;  -45,000;    0,000;42,75000
 783,63; -227,500; -238,000;    0,000;10,50000
 783,77;  262,500;  264,000;    0,000;-1,50000
 783,92; -192,750; -205,000;    0,000;12,25000
 784,06;  -50,500;  -25,000;    0,000;-25,50000
 784,20;  -35,750;  -47,000;    0,000;11,25000
 784,35; -280,000; -320,000;    0,000;40,00000
 784,49;  251,250;  136,000;    0,000;115,25000
 784,64;  -58,750;  -84,000;    0,000;25,25000
 784,78; -103,000; -139,000;    0,000;36,00000
 784,93;  -10,000;  -11,000;    0,000; 1,00000
 785,07;   44,250;   82,000;    0,000;-37,75000
 785,22; -122,500;  -69,000;    0,000;-53,50000
 785,36; -133,000; -164,000;    0,000;31,00000
 785,50; -260,500; -231,000;    0,000;-29,50000
 785,65; -474,750; -462,000;    0,000;-12,75000
 785,79;  -64,500; -186,000;    0,000;121,50000
 785,94;  184,000;   51,000;    0,000;133,00000
 786,08; -164,750; -229,000;    0,000;64,25000
 786,23;  326,750;  228,000;    0,000;98,75000
 786,37;   89,000;   16,000;    0,000;73,00000
 786,52; -439,000; -455,000;    0,000;16,00000
 786,66; -129,250; -146,000;    0,000;16,75000
 786,80;  -47,750; -171,000;    0,000;123,25000
 786,95; -345,250; -345,000;    0,000;-0,25000
 787,09; -354,000; -316,000;    0,000;-38,00000
 787,24; -138,250; -145,000;    0,000; 6,75000
 787,38;  122,250;  121,000;    0,000; 1,25000
 787,53;  -97,500;  -23,000;    0,000;-74,50000
 787,67; -233,250; -117,000;    0,000;-116,25000
 787,81;   61,750;   51,000;    0,000;10,75000
 787,96; -417,000; -371,000;    0,000;-46,00000
 788,10; -220,500; -153,000;    0,000;-67,50000
 788,25;  -20,500;  -14,000;    0,000;-6,50000
 788,39;  142,250;  144,000;    0,000;-1,75000
 788,53; -121,500; -139,000;    0,000;17,50000
 788,68;  137,500;    1,000;    0,000;136,50000
 788,82; -223,250; -311,000;    0,000;87,75000
 788,97; -351,750; -408,000;    0,000;56,25000
 789,11;  125,000;   62,000;    0,000;63,00000
 789,26;   48,250;   75,000;    0,000;-26,75000
 789,40; -247,750; -334,000;    0,000;86,25000
 789,54; -113,250; -131,000;    0,000;17,75000
 789,69;  182,750;   86,000;    0,000;96,75000
 789,83;  496,750;  332,000;    0,000;164,75000
 789,98; -100,250; -151,000;    0,000;50,75000
 790,12;  -58,000; -228,000;    0,000;170,00000
 790,26;  -98,250; -150,000;    0,000;51,75000
 790,41;  237,250;  232,000;    0,000; 5,25000
 790,55; -483,000; -414,000;    0,000;-69,00000
 790,70;   95,750;   35,000;    0,000;60,75000
 790,84;  -60,000;  -92,000;    0,000;32,00000
 790,98;  114,250;  152,000;    0,000;-37,75000
 791,13;  148,500;   68,000;    0,000;80,50000
 791,27;  -39,500;  -58,000;    0,000;18,50000
 791,42;  162,250;  137,000;    0,000;25,25000
 791,56; -405,500; -377,000;    0,000;-28,50000
 791,70; -109,500; -178,000;    0,000;68,50000
 791,85; -260,250; -263,000;    0,000; 2,75000
 791,99;  -92,000;  -87,000;    0,000;-5,00000
 792,14; -353,500; -421,000;    0,000;67,50000
 792,28; -131,500; -249,000;    0,000;117,50000
 792,42;  -19,750;  -64,000;    0,000;44,25000
 792,57; -332,500; -402,000;    0,000;69,50000
 792,71;  -90,000;  -95,000;    0,000; 5,00000
 792,86;  210,500;  193,000;    0,000;17,50000
 793,00;   34,750;  -60,000;    0,000;94,75000
 793,14;  310,000;  192,000;    0,000;118,00000
 793,29;  222,000;  204,000;    0,000;18,00000
 793,43;  -32,500; -158,000;    0,000;125,50000
 793,58;  -77,250; -189,000;    0,000;111,75000
 793,72;  256,500;  270,000;    0,000;-13,50000
 793,86;  -85,750;  -73,000;    0,000;-12,75000
 794,01;   17,750; -140,000;    0,000;157,75000
 794,15;  105,000;  120,000;    0,000;-15,00000
 794,29; -263,750; -341,000;    0,000;77,25000
 794,44; -157,250; -140,000;    0,000;-17,25000
 794,58; -161,000; -219,000;    0,000;58,00000
 794,73;    6,750;   -3,000;    0,000; 9,75000
 794,87;  189,000;   92,000;    0,000;97,00000
 795,01;  173,750;  134,000;    0,000;39,75000
 795,16;  147,000;   90,000;    0,000;57,00000
 795,30; -182,750; -165,000;    0,000;-17,75000
 795,44; -273,750; -222,000;    0,000;-51,75000
 795,59;   79,000;  -13,000;    0,000;92,00000
 795,73;  -54,000; -187,000;    0,000;133,00000
 795,88;  111,750;   68,000;    0,000;43,75000
 796,02; -218,750; -231,000;    0,000;12,25000
 796,16; -127,000; -300,000;    0,000;173,00000
 796,31;  141,000;   61,000;    0,000;80,00000
 796,45; -186,750; -249,000;    0,000;62,25000
 796,59;  456,750;  330,000;    0,000;126,75000
 796,74;   78,500;   -3,000;    0,000;81,50000
 796,88;   -1,000;  -42,000;    0,000;41,00000
 797,02;   84,000;   71,000;    0,000;13,00000
 797,17; -271,000; -261,000;    0,000;-10,00000
 797,31;   66,750;   44,000;    0,000;22,75000
 797,46;  -61,000;   -8,000;    0,000;-53,00000
 797,60;   13,750;   94,000;    0,000;-80,25000
 797,74; -633,000; -639,000;    0,000; 6,00000
 797,89;  147,750;   80,000;    0,000;67,75000
 798,03; -118,250; -100,000;    0,000;-18,25000
 798,17; -213,500; -167,000;    0,000;-46,50000
 798,32;  -18,250; -101,000;    0,000;82,75000
 798,46; -131,000; -275,000;    0,000;144,00000
 798,60;  417,000;  276,000;    0,000;141,00000
 798,75; -485,750; -413,000;    0,000;-72,75000
 798,89;  105,750;   58,000;    0,000;47,75000
 799,03;  103,250;   84,000;    0,000;19,25000
 799,18; -214,250; -326,000;    0,000;111,75000
 799,32;   67,250;   35,000;    0,000;32,25000
 799,46; -200,250; -211,000;    0,000;10,75000
 799,61; -100,250;  -80,000;    0,000;-20,25000
 799,75;  -85,250;  -66,000;    0,000;-19,25000
 799,89; -248,250; -206,000;    0,000;-42,25000
 800,04;  -71,750; -151,000;    0,000;79,25000
 800,18;  -85,000; -165,000;    0,000;80,00000
 800,32;   45,500;  -34,000;    0,000;79,50000
 800,47; -388,000; -424,000;    0,000;36,00000
 800,61;  261,500;  171,000;    0,000;90,50000
 800,75;  288,000;  283,000;    0,000; 5,00000
 800,90; -141,750; -155,000;    0,000;13,25000
 801,04;  339,000;  246,000;    0,000;93,00000
 801,18;  168,500;   66,000;    0,000;102,50000
 801,33; -154,250; -158,000;    0,000; 3,75000
 801,47; -294,000; -305,000;    0,000;11,00000
 801,61; -115,000; -185,000;    0,000;70,00000
 801,76; -365,000; -479,000;    0,000;114,00000
 801,90;  -64,250;  -90,000;    0,000;25,75000
 802,04; -406,250; -361,000;    0,000;-45,25000
 802,19; -190,500; -206,000;    0,000;15,50000
 802,33;  -76,000;  -67,000;    0,000;-9,00000
 802,47;  121,750;  111,000;    0,000;10,75000
 802,62;  -79,500;  -99,000;    0,000;19,50000
 802,76;   13,750;   36,000;    0,000;-22,25000
 802,90; -139,000; -247,000;    0,000;108,00000
 803,05; -199,750; -195,000;    0,000;-4,75000
 803,19; -143,500; -191,000;    0,000;47,50000
 803,33;  109,000;   75,000;    0,000;34,00000
 803,48; -260,250; -388,000;    0,000;127,75000
 803,62; -118,000; -161,000;    0,000;43,00000
 803,76;  280,000;   92,000;    0,000;188,00000
 803,91; -223,750; -325,000;    0,000;101,25000
 804,05;    2,250;   -3,000;    0,000; 5,25000
 804,19;  -29,250; -113,000;    0,000;83,75000
 804,33; -324,500; -299,000;    0,000;-25,50000
 804,48; -300,750; -359,000;    0,000;58,25000
 804,62; -167,000; -199,000;    0,000;32,00000
 804,76;   32,750;   23,000;    0,000; 9,75000
 804,91; -164,250; -145,000;    0,000;-19,25000
 805,05;   14,500; -121,000;    0,000;135,50000
 805,19;  216,250;  104,000;    0,000;112,25000
 805,34;   -4,750;   41,000;    0,000;-45,75000
 805,48;   68,250;   -9,000;    0,000;77,25000
 805,62;  -44,750; -134,000;    0,000;89,25000
 805,77; -307,500; -281,000;    0,000;-26,50000
 805,91;  203,500;  103,000;    0,000;100,50000
 806,05;   -8,250;  -78,000;    0,000;69,75000
 806,19;  275,000;  310,000;    0,000;-35,00000
 806,34; -314,250; -295,000;    0,000;-19,25000
 806,48;   85,750;  160,000;    0,000;-74,25000
 806,62; -203,000; -227,000;    0,000;24,00000
 806,77;   84,250;    4,000;    0,000;80,25000
 806,91; -180,500;  -93,000;    0,000;-87,50000
 807,05;  -33,250; -147,000;    0,000;113,75000
 807,19; -260,750; -274,000;    0,000;13,25000
 807,34; -317,000; -327,000;    0,000;10,00000
 807,48; -447,250; -494,000;    0,000;46,75000
 807,62;  281,250;  246,000;    0,000;35,25000
 807,77;  -45,750; -154,000;    0,000;108,25000
 807,91;   -8,500;  -84,000;    0,000;75,50000
 808,05;  131,000;  102,000;    0,000;29,00000
 808,19;  -96,250; -108,000;    0,000;11,75000
 808,34;  365,500;  207,000;    0,000;158,50000
 808,48;  374,750;  236,000;    0,000;138,75000
 808,62;  -49,250;  -24,000;    0,000;-25,25000
 808,77;  117,250;  104,000;    0,000;13,25000
 808,91;  337,750;  294,000;    0,000;43,75000
 809,05; -374,000; -434,000;    0,000;60,00000
 809,19;  -83,500; -144,000;    0,000;60,50000
 809,34;  110,250;   43,000;    0,000;67,25000
 809,48;  -87,750; -162,000;    0,000;74,25000
 809,62;  190,250;  200,000;    0,000;-9,75000
 809,77;   50,500;  -73,000;    0,000;123,50000
 809,91;  -31,750; -101,000;    0,000;69,25000
 810,05;   41,750;  -57,000;    0,000;98,75000
 810,19; -164,500; -254,000;    0,000;89,50000
 810,34; -239,500; -202,000;    0,000;-37,50000
 810,48;  114,250;  -12,000;    0,000;126,25000
 810,62;  -92,500; -217,000;    0,000;124,50000
 810,76;  -77,750;   34,000;    0,000;-111,75000
 810,91; -272,750; -309,000;    0,000;36,25000
 811,05;  -35,500;  -76,000;    0,000;40,50000
 811,19;  138,250;   72,000;    0,000;66,25000
 811,33;  491,250;  408,000;    0,000;83,25000
 811,48;  -23,000; -153,000;    0,000;130,00000
 811,62; -132,500; -224,000;    0,000;91,50000
 811,76; -115,000; -108,000;    0,000;-7,00000
 811,90;  -77,000; -167,000;    0,000;90,00000
 812,05; -178,500; -226,000;    0,000;47,50000
 812,19;  -49,000;  -68,000;    0,000;19,00000
 812,33; -101,250;  -48,000;    0,000;-53,25000
 812,47; -213,750; -297,000;    0,000;83,25000
 812,62;  106,750;   84,000;    0,000;22,75000
 812,76;  121,000;   94,000;    0,000;27,00000
 812,90;  -98,750; -148,000;    0,000;49,25000
 813,04; -290,250; -241,000;    0,000;-49,25000
 813,19; -291,500; -281,000;    0,000;-10,50000
 813,33; -317,250; -321,000;    0,000; 3,75000
 813,47;  128,250;   -7,000;    0,000;135,25000
 813,61;  110,750;  -31,000;    0,000;141,75000
 813,76;   15,000;  -31,000;    0,000;46,00000
 813,90;   43,000;   34,000;    0,000; 9,00000
 814,04;  346,000;  347,000;    0,000;-1,00000
 814,18; -212,750; -179,000;    0,000;-33,75000
 814,33; -217,500; -198,000;    0,000;-19,50000
 814,47; -261,750; -339,000;    0,000;77,25000
 814,61; -132,500; -105,000;    0,000;-27,50000
 814,75;   53,500;   98,000;    0,000;-44,50000
 814,90; -324,750; -432,000;    0,000;107,25000
 815,04; -412,250; -348,000;    0,000;-64,25000
 815,18; -338,500; -282,000;    0,000;-56,50000
 815,32; -243,750; -298,000;    0,000;54,25000
 815,47;  -22,250;   73,000;    0,000;-95,25000
 815,61;  248,000;  155,000;    0,000;93,00000
 815,75;   98,750;   64,000;    0,000;34,75000
 815,89;   83,000;  112,000;    0,000;-29,00000
 816,03;  -49,500; -157,000;    0,000;107,50000
 816,18;   74,750;    9,000;    0,000;65,75000
 816,32;  348,000;  121,000;    0,000;227,00000
 816,46;  -63,750; -167,000;    0,000;103,25000
 816,60;  -54,000; -114,000;    0,000;60,00000
 816,75;  -32,000;  -80,000;    0,000;48,00000
 816,89;   34,250;   46,000;    0,000;-11,75000
 817,03;   10,500;  -19,000;    0,000;29,50000
 817,17;  220,750;  138,000;    0,000;82,75000
 817,31; -123,000; -126,000;    0,000; 3,00000
 817,46;   59,500;  -48,000;    0,000;107,50000
 817,60;   49,500;   36,000;    0,000;13,50000
 817,74;  -20,250;  -42,000;    0,000;21,75000
 817,88;   58,250;    2,000;    0,000;56,25000
 818,03; -215,500; -199,000;    0,000;-16,50000
 818,17;  -59,500;  -87,000;    0,000;27,50000
 818,31;  165,500;  188,000;    0,000;-22,50000
 818,45; -171,750; -104,000;    0,000;-67,75000
 818,59;  -74,000; -107,000;    0,000;33,00000
 818,74;  -70,250;  -77,000;    0,000; 6,75000
 818,88;  220,000;  178,000;    0,000;42,00000
 819,02;  -69,000; -117,000;    0,000;48,00000
 819,16;  -49,000; -160,000;    0,000;111,00000
 819,30; -111,250; -101,000;    0,000;-10,25000
 819,45; -343,000; -311,000;    0,000;-32,00000
 819,59;    4,000;  -52,000;    0,000;56,00000
 819,73;  162,250;  123,000;    0,000;39,25000
 819,87; -276,750; -197,000;    0,000;-79,75000
 820,01;  -19,500;  -65,000;    0,000;45,50000
 820,16;  -46,250; -115,000;    0,000;68,75000
 820,30; -220,750; -226,000;    0,000; 5,25000
 820,44;  -40,000;  -10,000;    0,000;-30,00000
 820,58;  -25,000;  -23,000;    0,000;-2,00000
 820,72; -422,500; -416,000;    0,000;-6,50000
 820,87;   71,750;   40,000;    0,000;31,75000
 821,01; -254,500; -336,000;    0,000;81,50000
 821,15;   25,500;   89,000;    0,000;-63,50000
 821,29; -261,500; -247,000;    0,000;-14,50000
 821,43;  116,750;   38,000;    0,000;78,75000
 821,57;  109,500;   75,000;    0,000;34,50000
 821,72; -120,000; -188,000;    0,000;68,00000
 821,86;  201,500;   89,000;    0,000;112,50000
 822,00;   20,750;    2,000;    0,000;18,75000
 822,14;  -68,750; -268,000;    0,000;199,25000
 822,28; -441,750; -445,000;    0,000; 3,25000
 822,43; -158,500; -133,000;    0,000;-25,50000
 822,57; -110,000; -142,000;    0,000;32,00000
 822,71; -152,250; -198,000;    0,000;45,75000
 822,85;  153,000;  140,000;    0,000;13,00000
 822,99;  -18,000;  -64,000;    0,000;46,00000
 823,13;  185,000;  131,000;    0,000;54,00000
 823,28; -263,750; -260,000;    0,000;-3,75000
 823,42; -145,000; -179,000;    0,000;34,00000
 823,56; -139,250; -137,000;    0,000;-2,25000
 823,70;  -41,750; -160,000;    0,000;118,25000
 823,84; -131,500; -208,000;    0,000;76,50000
 823,99;   -8,250;  -22,000;    0,000;13,75000
 824,13;  -66,250;   39,000;    0,000;-105,25000
 824,27;  -64,500; -203,000;    0,000;138,50000
 824,41;   80,500;   19,000;    0,000;61,50000
 824,55;  -53,750; -122,000;    0,000;68,25000
 824,69;  123,250;    8,000;    0,000;115,25000
 824,84; -247,000; -279,000;    0,000;32,00000
 824,98; -131,500; -243,000;    0,000;111,50000
 825,12; -254,750; -263,000;    0,000; 8,25000
 825,26; -216,500; -214,000;    0,000;-2,50000
 825,40;  146,750;  114,000;    0,000;32,75000
 825,54; -234,500; -161,000;    0,000;-73,50000
 825,68;   -2,750;  -74,000;    0,000;71,25000
 825,83;   38,250;  -61,000;    0,000;99,25000
 825,97; -186,500; -105,000;    0,000;-81,50000
 826,11; -334,750; -392,000;    0,000;57,25000
 826,25;  281,750;  217,000;    0,000;64,75000
 826,39;  -16,000;   82,000;    0,000;-98,00000
 826,53;  -78,000;  -83,000;    0,000; 5,00000
 826,68;  -65,000; -106,000;    0,000;41,00000
 826,82;   83,500;  -56,000;    0,000;139,50000
 826,96;  294,750;  223,000;    0,000;71,75000
 827,10; -424,000; -427,000;    0,000; 3,00000
 827,24;  150,250;  145,000;    0,000; 5,25000
 827,38;  230,500;  117,000;    0,000;113,50000
 827,52;  -82,000; -101,000;    0,000;19,00000
 827,67;  129,000;   41,000;    0,000;88,00000
 827,81;  107,000;   -9,000;    0,000;116,00000
 827,95;    5,500;   14,000;    0,000;-8,50000
 828,09;   14,000;  -63,000;    0,000;77,00000
 828,23;  140,500;  105,000;    0,000;35,50000
 828,37;  -87,750; -187,000;    0,000;99,25000
 828,51; -120,750; -157,000;    0,000;36,25000
 828,66;  150,000;  196,000;    0,000;-46,00000
 828,80; -246,250; -228,000;    0,000;-18,25000
 828,94;   24,750;   19,000;    0,000; 5,75000
 829,08;  -86,500;  -40,000;    0,000;-46,50000
 829,22; -313,750; -280,000;    0,000;-33,75000
 829,36; -295,000; -254,000;    0,000;-41,00000
 829,50;  -33,250;  -61,000;    0,000;27,75000
 829,64; -269,750; -299,000;    0,000;29,25000
 829,79;  284,000;  153,000;    0,000;131,00000
 829,93;  -36,500; -134,000;    0,000;97,50000
 830,07; -277,500; -268,000;    0,000;-9,50000
 830,21;  -99,500;  -81,000;    0,000;-18,50000
 830,35;  -21,500;  -25,000;    0,000; 3,50000
 830,49;  269,750;  278,000;    0,000;-8,25000
 830,63;   14,250;   32,000;    0,000;-17,75000
 830,77;  -35,750;    0,000;    0,000;-35,75000
 830,92; -183,750; -124,000;    0,000;-59,75000
 831,06;  458,500;  397,000;    0,000;61,50000
 831,20; -219,250; -262,000;    0,000;42,75000
 831,34; -245,000; -262,000;    0,000;17,00000
 831,48;  121,000;   85,000;    0,000;36,00000
 831,62;  116,250;   54,000;    0,000;62,25000
 831,76; -291,250; -353,000;    0,000;61,75000
 831,90; -274,000; -283,000;    0,000; 9,00000
 832,05;   68,750;   66,000;    0,000; 2,75000
 832,19;  -84,000; -108,000;    0,000;24,00000
 832,33;  135,250;  126,000;    0,000; 9,25000
 832,47; -106,750; -179,000;    0,000;72,25000
 832,61;   52,000;   69,000;    0,000;-17,00000
 832,75;  -26,000;  -63,000;    0,000;37,00000
 832,89;  187,250;  105,000;    0,000;82,25000
 833,03; -115,250; -127,000;    0,000;11,75000
 833,17; -234,500; -153,000;    0,000;-81,50000
 833,31;  -34,500; -130,000;    0,000;95,50000
 833,46; -287,750; -389,000;    0,000;101,25000
 833,60;  -76,250;  -78,000;    0,000; 1,75000
 833,74; -239,500; -303,000;    0,000;63,50000
 833,88; -464,250; -513,000;    0,000;48,75000
 834,02; -290,750; -324,000;    0,000;33,25000
 834,16; -124,750; -155,000;    0,000;30,25000
 834,30; -180,250; -204,000;    0,000;23,75000
 834,44; -207,250; -222,000;    0,000;14,75000
 834,58;  -84,250;  -86,000;    0,000; 1,75000
 834,72; -101,000; -208,000;    0,000;107,00000
 834,87;  277,000;  107,000;    0,000;170,00000
 835,01;  -58,500; -116,000;    0,000;57,50000
 835,15;  -35,750;  -50,000;    0,000;14,25000
 835,29; -353,250; -321,000;    0,000;-32,25000
 835,43;  127,500;  117,000;    0,000;10,50000
 835,57;  146,000;  135,000;    0,000;11,00000
 835,71;  131,750;   79,000;    0,000;52,75000
 835,85;  126,250;  -17,000;    0,000;143,25000
 835,99; -101,250; -158,000;    0,000;56,75000
 836,13; -196,250; -348,000;    0,000;151,75000
 836,27;  241,750;  256,000;    0,000;-14,25000
 836,41;  -16,250;  -97,000;    0,000;80,75000
 836,56;   72,250;   12,000;    0,000;60,25000
 836,70;  -47,250;  -15,000;    0,000;-32,25000
 836,84;   72,250;   37,000;    0,000;35,25000
 836,98;  165,000;  108,000;    0,000;57,00000
 837,12;  265,250;  260,000;    0,000; 5,25000
 837,26;  183,250;  108,000;    0,000;75,25000
 837,40; -209,750; -207,000;    0,000;-2,75000
 837,54; -132,500; -130,000;    0,000;-2,50000
 837,68;  260,750;  157,000;    0,000;103,75000
 837,82;   38,750;  -12,000;    0,000;50,75000
 837,96; -558,500; -597,000;    0,000;38,50000
 838,10;  -65,250; -122,000;    0,000;56,75000
 838,24; -274,500; -380,000;    0,000;105,50000
 838,38;   21,250;  -52,000;    0,000;73,25000
 838,53; -224,250; -121,000;    0,000;-103,25000
 838,67;  166,750;  137,000;    0,000;29,75000
 838,81; -231,250; -350,000;    0,000;118,75000
 838,95; -241,250; -310,000;    0,000;68,75000
 839,09;  108,000;   47,000;    0,000;61,00000
 839,23;   33,000;   19,000;    0,000;14,00000
 839,37;  -45,250; -127,000;    0,000;81,75000
 839,51;  179,000;  245,000;    0,000;-66,00000
 839,65;  -37,750;  -58,000;    0,000;20,25000
 839,79; -196,500; -179,000;    0,000;-17,50000
 839,93;   95,750;   92,000;    0,000; 3,75000
 840,07; -157,250; -152,000;    0,000;-5,25000
 840,21;  -30,250;  -29,000;    0,000;-1,25000
 840,35; -327,500; -367,000;    0,000;39,50000
 840,49; -109,000;  -57,000;    0,000;-52,00000
 840,63; -243,750; -258,000;    0,000;14,25000
 840,77; -140,250; -221,000;    0,000;80,75000
 840,91; -185,500; -175,000;    0,000;-10,50000
 841,06;  -66,750;  -77,000;    0,000;10,25000
 841,20; -152,500; -137,000;    0,000;-15,50000
 841,34; -133,500; -154,000;    0,000;20,50000
 841,48; -198,750; -225,000;    0,000;26,25000
 841,62;  173,250;  123,000;    0,000;50,25000
 841,76;  131,750;   73,000;    0,000;58,75000
 841,90;   47,250;  -60,000;    0,000;107,25000
 842,04; -420,500; -395,000;    0,000;-25,50000
 842,18; -259,000; -340,000;    0,000;81,00000
 842,32; -109,750; -103,000;    0,000;-6,75000
 842,46; -415,750; -323,000;    0,000;-92,75000
 842,60;  309,500;  214,000;    0,000;95,50000
 842,74; -153,500; -113,000;    0,000;-40,50000
 842,88;    4,250;  -16,000;    0,000;20,25000
 843,02;  299,000;  219,000;    0,000;80,00000
 843,16;  -26,500;  -70,000;    0,000;43,50000
 843,30; -110,000;  -92,000;    0,000;-18,00000
 843,44; -238,250; -227,000;    0,000;-11,25000
 843,58;  -12,500; -179,000;    0,000;166,50000
 843,72; -208,500; -219,000;    0,000;10,50000
 843,86;  175,000;  260,000;    0,000;-85,00000
 844,00;  -33,000;  -62,000;    0,000;29,00000
 844,14;  182,250;  103,000;    0,000;79,25000
 844,28; -119,250; -264,000;    0,000;144,75000
 844,42;  263,250;  201,000;    0,000;62,25000
 844,56;   37,000;  -52,000;    0,000;89,00000
 844,70;  -85,000;  -34,000;    0,000;-51,00000
 844,84;  -36,750;  -69,000;    0,000;32,25000
 844,98; -336,250; -383,000;    0,000;46,75000
 845,12;   15,250;   38,000;    0,000;-22,75000
 845,26; -335,000; -321,000;    0,000;-14,00000
 845,40;   50,000;   89,000;    0,000;-39,00000
 845,54;    7,000;   -6,000;    0,000;13,00000
 845,68; -208,000; -162,000;    0,000;-46,00000
 845,82; -119,000; -180,000;    0,000;61,00000
 845,96;   74,500;   25,000;    0,000;49,50000
 846,10;  236,250;  151,000;    0,000;85,25000
 846,24; -167,500; -215,000;    0,000;47,50000
 846,39;  137,000;   82,000;    0,000;55,00000
 846,53; -186,750; -278,000;    0,000;91,25000
 846,67;   91,250;   17,000;    0,000;74,25000
 846,81; -375,000; -363,000;    0,000;-12,00000
 846,95;  145,500;  135,000;    0,000;10,50000
 847,09;    3,000;   -5,000;    0,000; 8,00000
 847,23;   74,500;   72,000;    0,000; 2,50000
 847,37;   29,750;    4,000;    0,000;25,75000
 847,51; -159,500; -179,000;    0,000;19,50000
 847,65;   69,750;   11,000;    0,000;58,75000
 847,79;  -97,000; -116,000;    0,000;19,00000
 847,93;   59,000;  142,000;    0,000;-83,00000
 848,06;  -80,000; -149,000;    0,000;69,00000
 848,20;  191,750;  112,000;    0,000;79,75000
 848,34; -296,500; -426,000;    0,000;129,50000
 848,48;  135,750;   12,000;    0,000;123,75000
 848,62;  -32,000;  -46,000;    0,000;14,00000
 848,76;  -65,000; -111,000;    0,000;46,00000
 848,90; -144,250; -145,000;    0,000; 0,75000
 849,04;   26,000;    3,000;    0,000;23,00000
 849,18; -146,000; -221,000;    0,000;75,00000
 849,32;   -9,000; -123,000;    0,000;114,00000
 849,46;  -68,250; -163,000;    0,000;94,75000
 849,60;   14,500;    9,000;    0,000; 5,50000
 849,74;   43,500;  -38,000;    0,000;81,50000
 849,88;  169,500;  139,000;    0,000;30,50000
 850,02; -417,000; -437,000;    0,000;20,00000
 850,16;  -49,750;  -58,000;    0,000; 8,25000
 850,30; -153,250; -197,000;    0,000;43,75000
 850,44;  -85,750; -133,000;    0,000;47,25000
 850,58; -277,250; -236,000;    0,000;-41,25000
 850,72; -246,750; -253,000;    0,000; 6,25000
 850,86;   15,000;   10,000;    0,000; 5,00000
 851,00; -378,500; -333,000;    0,000;-45,50000
 851,14;  232,000;  214,000;    0,000;18,00000
 851,28;  117,750;    4,000;    0,000;113,75000
 851,42; -373,750; -390,000;    0,000;16,25000
 851,56;  -41,250; -189,000;    0,000;147,75000
 851,70;   -3,500;  -56,000;    0,000;52,50000
 851,84;  197,000;  103,000;    0,000;94,00000
 851,98;  497,250;  309,000;    0,000;188,25000
 852,12; -220,000; -207,000;    0,000;-13,00000
 852,26;  406,750;  408,000;    0,000;-1,25000
 852,40;  -75,250;  -26,000;    0,000;-49,25000
 852,54; -331,500; -344,000;    0,000;12,50000
 852,68;  259,000;  234,000;    0,000;25,00000
 852,82; -297,250; -399,000;    0,000;101,75000
 852,96;   41,750;   26,000;    0,000;15,75000
 853,10;  140,750;  140,000;    0,000; 0,75000
 853,24; -195,250; -208,000;    0,000;12,75000
 853,37;   53,500;    2,000;    0,000;51,50000
 853,51; -214,750; -188,000;    0,000;-26,75000
 853,65; -157,250; -164,000;    0,000; 6,75000
 853,79;  -75,000;  -52,000;    0,000;-23,00000
 853,93;  -69,500; -101,000;    0,000;31,50000
 854,07; -194,750; -229,000;    0,000;34,25000
 854,21;  -69,500;  -77,000;    0,000; 7,50000
 854,35;  324,750;  218,000;    0,000;106,75000
 854,49;  302,000;   95,000;    0,000;207,00000
 854,63; -255,250; -259,000;    0,000; 3,75000
 854,77; -112,000; -150,000;    0,000;38,00000
 854,91; -151,750; -227,000;    0,000;75,25000
 855,05;   60,250;   52,000;    0,000; 8,25000
 855,19; -161,000; -175,000;    0,000;14,00000
 855,33;  -94,500; -111,000;    0,000;16,50000
 855,47;   37,500;   23,000;    0,000;14,50000
 855,61;  -35,250;  -81,000;    0,000;45,75000
 855,75;  235,750;  174,000;    0,000;61,75000
 855,88;  340,250;  193,000;    0,000;147,25000
 856,02; -296,250; -370,000;    0,000;73,75000
 856,16;  119,000;   92,000;    0,000;27,00000
 856,30;    7,000;  -55,000;    0,000;62,00000
 856,44;   92,000;  114,000;    0,000;-22,00000
 856,58; -259,000; -284,000;    0,000;25,00000
 856,72;  101,250;   22,000;    0,000;79,25000
 856,86;   45,000;    6,000;    0,000;39,00000
 857,00;  447,000;  369,000;    0,000;78,00000
 857,14; -155,500; -153,000;    0,000;-2,50000
 857,28;   21,250;    5,000;    0,000;16,25000
 857,42;  -13,250;   33,000;    0,000;-46,25000
 857,56;   25,500;   22,000;    0,000; 3,50000
 857,70;  -52,750;  -86,000;    0,000;33,25000
 857,83;  196,500;  146,000;    0,000;50,50000
 857,97;  -79,750; -114,000;    0,000;34,25000
 858,11; -139,250; -165,000;    0,000;25,75000
 858,25; -268,000; -341,000;    0,000;73,00000

