
Integration time [ms]: 600,000
Averaging Nr. [scans]: 10
Smoothing Nr. [pixels]: 0
Data measured with spectrometer [name]: 1804342U2
Wave   ;Sample   ;Dark     ;Reference;Scope Corrected for Dark
[nm]   ;[counts] ;[counts] ;[counts] 

 291,31; 1097,112;  483,025;    0,000;614,08642
 291,48;  741,846;   85,885;    0,000;655,96188
 291,65;  478,393;  -61,123;    0,000;539,51603
 291,82;  806,283;  315,963;    0,000;490,31962
 291,99;  794,051;  248,894;    0,000;545,15660
 292,16;  640,704;   55,008;    0,000;585,69547
 292,33;  678,973;  131,942;    0,000;547,03094
 292,50;  450,677;  -59,158;    0,000;509,83490
 292,66;  849,037;  220,971;    0,000;628,06547
 292,83;  947,849;  263,998;    0,000;683,85113
 293,00;  701,146;  135,992;    0,000;565,15415
 293,17;  952,712;  376,025;    0,000;576,68642
 293,34;  915,750;  342,999;    0,000;572,75038
 293,51;  754,294;  163,771;    0,000;590,52300
 293,68;  646,233;  -13,145;    0,000;659,37772
 293,85;  585,448;  -36,113;    0,000;621,56037
 294,01;  645,113;  110,920;    0,000;534,19264
 294,18;  464,948;  -61,113;    0,000;526,06037
 294,35;  473,762;  -47,083;    0,000;520,84452
 294,52;  922,409;  476,911;    0,000;445,49792
 294,69;  913,309;  326,912;    0,000;586,39716
 294,86; 1051,913;  440,920;    0,000;610,99264
 295,03;  751,364;  219,814;    0,000;531,54999
 295,20;  607,803;   13,790;    0,000;594,01244
 295,36;  932,519;  400,826;    0,000;531,69357
 295,53;  757,869;  214,934;    0,000;542,93547
 295,70;  555,034;  -79,034;    0,000;634,06849
 295,87;  730,187;  179,864;    0,000;550,32282
 296,04; 1137,642;  537,984;    0,000;599,65868
 296,21;  720,917;   51,929;    0,000;668,98811
 296,38;  307,522; -264,169;    0,000;571,69056
 296,55;  487,226; -164,051;    0,000;651,27754
 296,71; 1158,804;  578,901;    0,000;579,90320
 296,88;  613,764;   88,815;    0,000;524,94923
 297,05;  599,026;   40,947;    0,000;558,07830
 297,22;  437,260;  -96,195;    0,000;533,45452
 297,39;  791,373;  176,833;    0,000;614,53942
 297,56;  731,855;  130,795;    0,000;601,05980
 297,73;  826,196;  276,775;    0,000;549,42073
 297,90;  589,957;   39,692;    0,000;550,26526
 298,06;  964,416;  438,928;    0,000;525,48886
 298,23;  824,030;  129,849;    0,000;694,18075
 298,40;  498,956;  -90,096;    0,000;589,05131
 298,57;  410,462; -260,191;    0,000;670,65225
 298,74;  627,865;   62,818;    0,000;565,04772
 298,91;  795,772;   64,832;    0,000;730,94018
 299,08;  744,953;  121,899;    0,000;623,05434
 299,24;  632,328;   -1,047;    0,000;633,37528
 299,41;  629,824;  -35,163;    0,000;664,98754
 299,58;  532,966;  -83,181;    0,000;616,14697
 299,75; 1085,133;  426,856;    0,000;658,27697
 299,92;  862,737;  244,864;    0,000;617,87320
 300,09; 1102,826;  465,840;    0,000;636,98603
 300,26;  850,789;   13,976;    0,000;836,81283
 300,42; 1431,303;  312,899;    0,000;1118,40396
 300,59;  901,130; -111,258;    0,000;1012,38847
 300,76; 1299,543;  386,769;    0,000;912,77414
 300,93; 1023,026;  382,840;    0,000;640,18603
 301,10;  538,162;  -54,189;    0,000;592,35149
 301,27;  776,288;  149,759;    0,000;626,52904
 301,44;  696,539;   22,869;    0,000;673,67018
 301,60;  571,071;   20,829;    0,000;550,24169
 301,77;  768,654;  157,792;    0,000;610,86131
 301,94;  682,809;   50,803;    0,000;632,00564
 302,11;  741,074;  151,836;    0,000;589,23791
 302,28;  709,083;  158,748;    0,000;550,33508
 302,45;  900,479;  318,955;    0,000;581,52415
 302,62;  715,567;  146,821;    0,000;568,74621
 302,78;  766,650;  143,893;    0,000;622,75735
 302,95; 1072,510;  539,806;    0,000;532,70414
 303,12;  561,419;   25,826;    0,000;535,59357
 303,29;  987,582;  446,853;    0,000;540,72886
 303,46;  626,263;    1,921;    0,000;624,34226
 303,63;  715,979;  183,740;    0,000;532,23961
 303,79;  364,625; -251,162;    0,000;615,78678
 303,96;  278,602; -303,211;    0,000;581,81319
 304,13;  660,740;  101,871;    0,000;558,86942
 304,30;  775,607;  194,906;    0,000;580,70018
 304,47;  679,979;  110,955;    0,000;569,02415
 304,64;  226,657; -298,201;    0,000;524,85754
 304,81;  911,065;  428,818;    0,000;482,24772
 304,97;  666,853;  196,791;    0,000;470,06207
 305,14;  833,989;  289,868;    0,000;544,12055
 305,31;  433,833; -133,145;    0,000;566,97772
 305,48;  921,779;  425,740;    0,000;496,03961
 305,65; 1044,642;  455,875;    0,000;588,76716
 305,82;  725,301;  102,894;    0,000;622,40697
 305,98;  478,939;   -7,239;    0,000;486,17791
 306,15;  498,637;    9,757;    0,000;488,88017
 306,32;  633,374;   -1,056;    0,000;634,43018
 306,49;  475,062;  -43,189;    0,000;518,25149
 306,66;  472,798;  -97,220;    0,000;570,01772
 306,83;  574,715;  -29,184;    0,000;603,89885
 306,99;  660,288;   98,867;    0,000;561,42131
 307,16;  579,298;  -12,112;    0,000;591,40999
 307,33;  466,831; -122,149;    0,000;588,97999
 307,50; 1060,201;  375,786;    0,000;684,41470
 307,67; 1108,913;  554,811;    0,000;554,10112
 307,84;  771,871;  219,830;    0,000;552,04093
 308,00; 1100,531;  497,743;    0,000;602,78771
 308,17;  693,594;  231,878;    0,000;461,71527
 308,34;  664,781;    3,852;    0,000;660,92961
 308,51;  611,406;   63,905;    0,000;547,50094
 308,68; 1040,968;  401,823;    0,000;639,14471
 308,85;  578,084;    5,859;    0,000;572,22584
 309,01;  716,983;   57,856;    0,000;659,12735
 309,18;  687,468;   52,716;    0,000;634,75243
 309,35;  794,061;  253,808;    0,000;540,25301
 309,52;  699,839;  101,868;    0,000;597,97093
 309,69;  753,248;  206,780;    0,000;546,46810
 309,86;  705,374;  127,728;    0,000;577,64564
 310,02;  563,910;    3,913;    0,000;559,99641
 310,19;  706,504;  101,901;    0,000;604,60320
 310,36;  826,876;  324,840;    0,000;502,03565
 310,53; 1380,175;  849,839;    0,000;530,33641
 310,70;  426,762; -182,082;    0,000;608,84377
 310,86;  559,848;   32,889;    0,000;526,95962
 311,03;  711,085;  136,752;    0,000;574,33281
 311,20;  815,945;  332,880;    0,000;483,06414
 311,37;  809,764;  342,814;    0,000;466,94999
 311,54;  564,722;   39,833;    0,000;524,88980
 311,71;  672,053;   81,791;    0,000;590,26207
 311,87;  451,535; -139,139;    0,000;590,67471
 312,04;  451,839; -156,131;    0,000;607,97018
 312,21;  657,307;  -28,092;    0,000;685,39943
 312,38;  875,738;  345,866;    0,000;529,87169
 312,55;  845,486;  319,861;    0,000;525,62433
 312,71;  746,609;  129,803;    0,000;616,80564
 312,88;  852,369;  244,932;    0,000;607,43622
 313,05;  889,171;  363,723;    0,000;525,44866
 313,22; 1127,166;  569,712;    0,000;557,45470
 313,39;  909,714;  273,923;    0,000;635,79113
 313,56;  782,175;  147,947;    0,000;634,22868
 313,72;  465,165; -206,182;    0,000;671,34772
 313,89;  650,442;  -81,016;    0,000;731,45868
 314,06; 1015,190;  232,870;    0,000;782,31980
 314,23;  622,341;   -8,236;    0,000;630,57640
 314,40;  833,487;  111,864;    0,000;721,62282
 314,56;  851,571;  153,937;    0,000;697,63396
 314,73;  934,032;  390,745;    0,000;543,28696
 314,90;  753,694;  116,880;    0,000;636,81452
 315,07;  662,740;   49,763;    0,000;612,97715
 315,24;  779,341;  142,766;    0,000;636,57565
 315,40;  669,498;  114,888;    0,000;554,60999
 315,57;  923,730;  327,848;    0,000;595,88150
 315,74;  704,122;  119,833;    0,000;584,28980
 315,91;  698,197;   47,887;    0,000;650,31075
 316,08;  716,883;   98,747;    0,000;618,13584
 316,24;  905,622;  265,833;    0,000;639,78980
 316,41;  485,857; -222,201;    0,000;708,05754
 316,58;  861,284;  184,857;    0,000;676,42659
 316,75;  758,526;  111,949;    0,000;646,57754
 316,92;  853,675;  249,837;    0,000;603,83716
 317,08;  643,542;   38,767;    0,000;604,77489
 317,25;  858,324;  205,943;    0,000;652,38056
 317,42;  757,400;  111,676;    0,000;645,72395
 317,59;  521,965;  -89,182;    0,000;611,14772
 317,76;  543,403; -103,102;    0,000;646,50471
 317,92;  567,922; -108,060;    0,000;675,98207
 318,09;  652,043;  -21,122;    0,000;673,16565
 318,26;  575,830; -111,151;    0,000;686,98075
 318,43;  527,720; -181,173;    0,000;708,89282
 318,60;  869,065;  202,818;    0,000;666,24772
 318,76;  590,235;    7,752;    0,000;582,48319
 318,93;  741,023;  185,726;    0,000;555,29677
 319,10;  684,698;   33,780;    0,000;650,91772
 319,27;  612,885;   27,751;    0,000;585,13357
 319,44;  927,533;  246,747;    0,000;680,78545
 319,60; 1095,678;  472,845;    0,000;622,83338
 319,77;  604,437; -129,136;    0,000;733,57320
 319,94;  704,912;   35,919;    0,000;668,99339
 320,11; 1073,852;  385,896;    0,000;687,95584
 320,28;  794,233;  115,856;    0,000;678,37697
 320,44;  606,721; -106,278;    0,000;712,99903
 320,61;  615,890;  -86,129;    0,000;702,01905
 320,78;  566,562; -126,298;    0,000;692,85998
 320,95;  617,365; -136,182;    0,000;753,54772
 321,11;  961,743;  253,878;    0,000;707,86565
 321,28;  996,007;  245,908;    0,000;750,09943
 321,45;  963,504;  190,793;    0,000;772,71093
 321,62; 1276,071;  533,830;    0,000;742,24093
 321,79;  776,542;  -32,233;    0,000;808,77489
 321,95;  961,481;  321,742;    0,000;639,73810
 322,12;  771,446;   66,776;    0,000;704,67037
 322,29;  753,904;   17,793;    0,000;736,11093
 322,46;  702,277;  -99,158;    0,000;801,43490
 322,63;  960,962;  182,917;    0,000;778,04452
 322,79; 1231,979;  364,847;    0,000;867,13188
 322,96; 1063,580;  301,956;    0,000;761,62339
 323,13; 1040,401;  208,788;    0,000;831,61394
 323,30; 1115,850;  308,892;    0,000;806,95811
 323,46; 1288,437;  506,865;    0,000;781,57244
 323,63;  951,269;  120,826;    0,000;830,44320
 323,80;  783,654;   74,792;    0,000;708,86131
 323,97;  767,421;   68,937;    0,000;698,48358
 324,14;  803,411;  129,809;    0,000;673,60263
 324,30;  867,263;   93,705;    0,000;773,55847
 324,47; 1013,673;  201,942;    0,000;811,73094
 324,64;  638,979; -120,154;    0,000;759,13263
 324,81;  729,482;  -32,147;    0,000;761,62886
 324,97;  616,908; -146,198;    0,000;763,10640
 325,14; 1060,638;  214,759;    0,000;845,87942
 325,31;  696,614; -126,186;    0,000;822,79961
 325,48; 1008,344;  169,879;    0,000;838,46490
 325,64;  686,565;  -89,182;    0,000;775,74772
 325,81;  946,947;  144,886;    0,000;802,06113
 325,98;  974,722;   99,833;    0,000;874,88980
 326,15;  892,114;   82,922;    0,000;809,19188
 326,32; 1081,809;  277,804;    0,000;804,00489
 326,48;  669,205; -121,098;    0,000;790,30245
 326,65;  767,435;  -83,141;    0,000;850,57546
 326,82;  872,185;   97,752;    0,000;774,43281
 326,99; 1335,767;  525,928;    0,000;809,83849
 327,15;  771,284; -155,035;    0,000;926,31887
 327,32; 1135,836;  321,862;    0,000;813,97395
 327,49;  948,912;  -18,081;    0,000;966,99339
 327,66;  986,730;  259,848;    0,000;726,88150
 327,82;  687,434;  -97,251;    0,000;784,68470
 327,99;  865,431;   18,851;    0,000;846,57999
 328,16;  912,826;   62,733;    0,000;850,09300
 328,33; 1144,290;  163,762;    0,000;980,52753
 328,49; 1224,670;  193,828;    0,000;1030,84244
 328,66;  992,633; -130,253;    0,000;1122,88545
 328,83; 1394,030; -189,152;    0,000;1583,18150
 329,00; 3186,522;  127,833;    0,000;3058,68980
 329,17; 8356,355;   51,903;    0,000;8304,45207
 329,33;25959,750;  165,785;    0,000;25793,96508
 329,50;33554,900; -393,217;    0,000;33948,11621
 329,67; 9022,305;  247,687;    0,000;8774,61790
 329,84; 2158,504;  275,793;    0,000;1882,71093
 330,00; 1204,591;   12,873;    0,000;1191,71829
 330,17; 1079,941;   14,766;    0,000;1065,17565
 330,34; 1294,072;  215,724;    0,000;1078,34790
 330,51; 1486,426;  503,840;    0,000;982,58603
 330,67;  978,180;  -93,044;    0,000;1071,22339
 330,84;  972,299; -108,218;    0,000;1080,51696
 331,01; 1144,768;  177,823;    0,000;966,94471
 331,18;  609,156; -340,202;    0,000;949,35829
 331,34; 1323,682;  470,853;    0,000;852,82886
 331,51; 1174,137;  276,757;    0,000;897,38017
 331,68; 1267,467;  362,928;    0,000;904,53849
 331,85; 1375,617;  610,714;    0,000;764,90356
 332,01; 1033,116;  212,818;    0,000;820,29735
 332,18; 1182,877;  416,843;    0,000;766,03414
 332,35; 1038,112;  174,918;    0,000;863,19415
 332,52;  856,647;  -85,114;    0,000;941,76113
 332,68;  941,019;   63,826;    0,000;877,19357
 332,85;  788,062;  -74,189;    0,000;862,25149
 333,02;  844,186;  118,754;    0,000;725,43205
 333,19;  716,343; -161,122;    0,000;877,46565
 333,35; 1084,502;  237,789;    0,000;846,71319
 333,52;  885,959;   13,804;    0,000;872,15528
 333,69;  849,541;    3,872;    0,000;845,66867
 333,85;  479,582; -425,255;    0,000;904,83658
 334,02;  757,133; -142,036;    0,000;899,16924
 334,19;  789,133;   28,747;    0,000;760,38545
 334,36;  966,486;  173,755;    0,000;792,73131
 334,52;  888,083;  -24,252;    0,000;912,33508
 334,69; 1085,542;  223,659;    0,000;861,88261
 334,86;  873,060;   14,807;    0,000;858,25376
 335,03;  959,267;   56,930;    0,000;902,33773
 335,19; 1437,032;  458,854;    0,000;978,17848
 335,36; 1103,391;  248,765;    0,000;854,62602
 335,53; 1359,406;  455,797;    0,000;903,60867
 335,70;  827,807;  -33,986;    0,000;861,79245
 335,86;  862,543;  -14,231;    0,000;876,77414
 336,03;  972,126;   57,947;    0,000;914,17830
 336,20;  773,573;  -50,058;    0,000;823,63094
 336,37; 1164,969;  258,932;    0,000;906,03622
 336,53;  709,958; -187,090;    0,000;897,04830
 336,70; 1142,788;  257,866;    0,000;884,92206
 336,87;  617,854; -325,100;    0,000;942,95358
 337,03; 1411,301;  413,786;    0,000;997,51470
 337,20; 1378,218;  480,715;    0,000;897,50281
 337,37; 1396,173;  456,835;    0,000;939,33867
 337,54;  881,911; -119,191;    0,000;1001,10263
 337,70;  924,179;  -22,153;    0,000;946,33188
 337,87; 1037,238;  112,759;    0,000;924,47942
 338,04; 1079,999;  122,891;    0,000;957,10848
 338,21;  888,545;   17,773;    0,000;870,77187
 338,37; 1146,367;  170,928;    0,000;975,43849
 338,54; 1189,782;  252,853;    0,000;936,92886
 338,71; 1109,862;   70,811;    0,000;1039,05149
 338,87;  607,212; -273,190;    0,000;880,40187
 339,04;  890,759;  -80,089;    0,000;970,84754
 339,21;  887,601;  -59,212;    0,000;946,81394
 339,38;  992,753;   26,791;    0,000;965,96207
 339,54; 1234,651;  334,787;    0,000;899,86433
 339,71;  947,575;   15,731;    0,000;931,84413
 339,88;  928,202;  115,789;    0,000;812,41319
 340,04;  968,547;   70,886;    0,000;897,66113
 340,21;  977,676;   90,840;    0,000;886,83565
 340,38;  983,343;  105,878;    0,000;877,46565
 340,55;  817,332; -156,146;    0,000;973,47848
 340,71;  900,351;  -54,998;    0,000;955,34887
 340,88; 1072,498;    6,780;    0,000;1065,71772
 341,05;  817,209;  -20,196;    0,000;837,40489
 341,21; 1266,107;  350,800;    0,000;915,30715
 341,38;  860,924;  -87,056;    0,000;947,97981
 341,55; 1006,716;   79,818;    0,000;926,89735
 341,72;  864,617;   35,821;    0,000;828,79584
 341,88; 1258,231;  179,851;    0,000;1078,37999
 342,05; 1141,094;  131,772;    0,000;1009,32225
 342,22; 1151,882;  185,745;    0,000;966,13658
 342,38; 1037,667;   86,822;    0,000;950,84546
 342,55; 1349,116;  375,818;    0,000;973,29735
 342,72; 1219,395;  306,773;    0,000;912,62149
 342,89; 1074,562;  221,809;    0,000;852,75225
 343,05; 1236,613;  313,811;    0,000;922,80112
 343,22; 1166,211;  242,701;    0,000;923,51036
 343,39;  897,619; -105,067;    0,000;1002,68584
 343,55;  987,667;  -69,178;    0,000;1056,84546
 343,72; 1586,847;  429,886;    0,000;1156,96113
 343,89;  914,639; -141,023;    0,000;1055,66245
 344,06; 1153,609;  103,911;    0,000;1049,69792
 344,22; 1132,419;  118,826;    0,000;1013,59357
 344,39; 1013,842;  -24,233;    0,000;1038,07489
 344,56; 1086,211;  132,809;    0,000;953,40263
 344,72;  851,403; -110,101;    0,000;961,50396
 344,89;  998,253;   53,791;    0,000;944,46207
 345,06; 1368,763;  411,920;    0,000;956,84301
 345,22; 1023,188;   15,758;    0,000;1007,42979
 345,39; 1448,376;  404,840;    0,000;1043,53565
 345,56; 1255,690;  256,870;    0,000;998,81980
 345,73;  931,192;   -2,125;    0,000;933,31678
 345,89; 1077,993;   77,769;    0,000;1000,22376
 346,06;  771,215; -243,183;    0,000;1014,39810
 346,23;  937,494;  -52,229;    0,000;989,72300
 346,39; 1157,792;  238,875;    0,000;918,91678
 346,56;  968,821;  -47,170;    0,000;1015,99131
 346,73; 1086,466;   71,819;    0,000;1014,64697
 346,89; 1172,064;  191,814;    0,000;980,24999
 347,06; 1024,100;  -85,108;    0,000;1109,20773
 347,23; 1185,570;   80,828;    0,000;1104,74244
 347,39; 1040,668;   42,931;    0,000;997,73697
 347,56; 1129,313;  103,813;    0,000;1025,50036
 347,73; 1421,869;  288,825;    0,000;1133,04395
 347,90; 1156,311;   32,807;    0,000;1123,50338
 348,06;  916,228; -171,047;    0,000;1087,27528
 348,23; 1291,154;  280,794;    0,000;1010,36055
 348,40; 1208,530;  198,849;    0,000;1009,68075
 348,56;  792,516; -298,182;    0,000;1090,69735
 348,73; 1314,275;  334,839;    0,000;979,43641
 348,90; 1137,514;  -34,078;    0,000;1171,59188
 349,06; 1036,549;   60,781;    0,000;975,76734
 349,23;  970,712; -147,081;    0,000;1117,79339
 349,40; 1136,676;  123,733;    0,000;1012,94338
 349,56;  906,650; -145,216;    0,000;1051,86584
 349,73; 1056,556;   49,906;    0,000;1006,65056
 349,90; 1259,381;  145,852;    0,000;1113,52961
 350,06; 1011,405;   -1,204;    0,000;1012,60941
 350,23;  647,542; -340,125;    0,000;987,66716
 350,40; 1458,049;  449,890;    0,000;1008,15886
 350,56; 1108,216;  122,820;    0,000;985,39659
 350,73;  819,314; -192,186;    0,000;1011,49961
 350,90;  904,341; -123,128;    0,000;1027,46867
 351,07; 1310,408;  208,802;    0,000;1101,60640
 351,23;  962,373;  -57,167;    0,000;1019,53942
 351,40; 1073,234;   97,966;    0,000;975,26849
 351,57; 1160,237;   89,865;    0,000;1070,37244
 351,73; 1292,564;  202,923;    0,000;1089,64151
 351,90; 1207,666;  271,712;    0,000;935,95470
 352,07; 1124,218;  163,930;    0,000;960,28735
 352,23;  857,237; -253,244;    0,000;1110,48093
 352,40;  941,850;  -56,216;    0,000;998,06584
 352,57; 1193,264;  224,814;    0,000;968,44999
 352,73; 1348,618;  296,823;    0,000;1051,79508
 352,90;  815,969; -222,281;    0,000;1038,25093
 353,07; 1485,023;  447,834;    0,000;1037,18904
 353,23;  902,816; -210,180;    0,000;1112,99659
 353,40;  941,824; -163,165;    0,000;1104,98829
 353,57; 1007,258;  -50,198;    0,000;1057,45602
 353,73; 1136,266;  -38,073;    0,000;1174,33924
 353,90; 1778,350;  549,893;    0,000;1228,45735
 354,07; 1437,715;  285,816;    0,000;1151,89885
 354,23; 1198,098;  -12,221;    0,000;1210,31847
 354,40; 1868,914;  509,922;    0,000;1358,99188
 354,57; 1644,987;   94,757;    0,000;1550,23055
 354,73; 1399,434; -144,034;    0,000;1543,46849
 354,90; 1037,537; -129,243;    0,000;1166,78017
 355,07; 1334,243;  244,878;    0,000;1089,36565
 355,23;  959,146; -225,117;    0,000;1184,26263
 355,40; 1250,294;   65,772;    0,000;1184,52225
 355,57; 1180,515;  -46,292;    0,000;1226,80658
 355,73; 1220,496;  -40,008;    0,000;1260,50453
 355,90; 1347,228;  -88,262;    0,000;1435,49073
 356,07; 1444,983;  137,748;    0,000;1307,23508
 356,23; 1076,349;  -79,110;    0,000;1155,45886
 356,40; 1683,103;  463,792;    0,000;1219,31168
 356,57; 1545,105;  377,904;    0,000;1167,20169
 356,73; 1077,287;   -9,243;    0,000;1086,53055
 356,90; 1548,268;  430,716;    0,000;1117,55243
 357,07; 1567,829;  452,739;    0,000;1115,08998
 357,23; 1460,855;  381,795;    0,000;1079,05980
 357,40; 1256,684;  137,859;    0,000;1118,82584
 357,56; 1024,983; -169,252;    0,000;1194,23508
 357,73; 1262,548;  165,889;    0,000;1096,65962
 357,90; 1449,326;  369,840;    0,000;1079,48603
 358,06; 1319,150;  165,892;    0,000;1153,25811
 358,23;  982,712;  -99,190;    0,000;1081,90187
 358,40; 1225,735;  129,859;    0,000;1095,87546
 358,56; 1042,936;  -59,138;    0,000;1102,07395
 358,73;  949,192; -124,126;    0,000;1073,31754
 358,90; 1308,487;  126,864;    0,000;1181,62282
 359,06; 1165,924;   46,835;    0,000;1119,08829
 359,23; 1021,448;  -49,220;    0,000;1070,66810
 359,40;  917,441; -143,234;    0,000;1060,67565
 359,56; 1136,828;    9,738;    0,000;1127,09073
 359,73; 1313,641;   37,872;    0,000;1275,76867
 359,90; 1234,724; -131,165;    0,000;1365,88829
 360,06; 1586,038;  513,866;    0,000;1072,17169
 360,23; 1148,099;   35,674;    0,000;1112,42469
 360,40; 1168,722;   23,939;    0,000;1144,78283
 360,56; 1008,348; -213,113;    0,000;1221,46037
 360,73; 1096,737;   32,757;    0,000;1063,98017
 360,89; 1074,839;  -43,240;    0,000;1118,07866
 361,06; 1146,595; -109,011;    0,000;1255,60604
 361,23; 1329,269;  121,826;    0,000;1207,44320
 361,39; 1345,234;  153,858;    0,000;1191,37621
 361,56; 1083,351;  -72,213;    0,000;1155,56433
 361,73; 1183,739;   54,760;    0,000;1128,97866
 361,89; 1357,186;  270,754;    0,000;1086,43205
 362,06; 1178,490;   73,655;    0,000;1104,83526
 362,23; 1060,718;  -77,176;    0,000;1137,89433
 362,39; 1380,405;   82,795;    0,000;1297,61017
 362,56; 1447,066;  184,819;    0,000;1262,24697
 362,72; 1359,412;  139,702;    0,000;1219,70960
 362,89; 1210,067;   70,713;    0,000;1139,35395
 363,06; 1622,129;  531,739;    0,000;1090,38998
 363,22; 1465,282;  356,854;    0,000;1108,42810
 363,39; 1183,808;   74,802;    0,000;1109,00640
 363,56; 1132,566;  -76,181;    0,000;1208,74697
 363,72; 1544,702;  545,789;    0,000;998,91319
 363,89; 1089,235;   -2,248;    0,000;1091,48319
 364,06; 1253,255;  -25,097;    0,000;1278,35207
 364,22; 1194,289;   84,545;    0,000;1109,74373
 364,39; 1297,235;  178,753;    0,000;1118,48243
 364,55; 1223,248;  176,672;    0,000;1046,57582
 364,72; 1058,061;   73,808;    0,000;984,25301
 364,89; 1268,962;  114,703;    0,000;1154,25923
 365,05; 1321,356;  200,904;    0,000;1120,45131
 365,22; 1363,896;  210,884;    0,000;1153,01226
 365,39;  963,228;   -1,262;    0,000;964,49073
 365,55; 1227,107;   96,800;    0,000;1130,30715
 365,72; 1231,579;   91,846;    0,000;1139,73263
 365,88;  753,056; -296,203;    0,000;1049,25905
 366,05; 1112,481;    9,852;    0,000;1102,62961
 366,22;  970,582;  -85,255;    0,000;1055,83658
 366,38;  977,079; -135,262;    0,000;1112,34036
 366,55;  995,424;  -40,163;    0,000;1035,58754
 366,72; 1285,905;  174,688;    0,000;1111,21715
 366,88; 1103,956;  -23,311;    0,000;1127,26677
 367,05; 1449,385;  309,860;    0,000;1139,52508
 367,21; 1481,360;  291,914;    0,000;1189,44603
 367,38; 1293,803;  172,792;    0,000;1121,01168
 367,55; 1339,647;  176,777;    0,000;1162,86961
 367,71; 1007,846; -171,115;    0,000;1178,96188
 367,88; 1734,178;  662,737;    0,000;1071,44111
 368,04;  923,859; -173,196;    0,000;1097,05528
 368,21; 1255,285;  -34,249;    0,000;1289,53357
 368,38; 1161,981;   20,742;    0,000;1141,23810
 368,54; 1255,238;  123,759;    0,000;1131,47942
 368,71; 1215,132;  197,746;    0,000;1017,38621
 368,88; 1016,233; -155,145;    0,000;1171,37772
 369,04; 1326,135;  189,859;    0,000;1136,27546
 369,21;  912,808; -208,198;    0,000;1121,00640
 369,37; 1167,142;   24,982;    0,000;1142,15943
 369,54; 1007,621;  -89,170;    0,000;1096,79131
 369,71; 1071,978;  -67,046;    0,000;1139,02490
 369,87;  964,542; -117,233;    0,000;1081,77489
 370,04; 1270,417;  150,821;    0,000;1119,59584
 370,20; 1061,592;  -54,341;    0,000;1115,93300
 370,37; 1191,664;  217,707;    0,000;973,95696
 370,54; 1045,013; -116,187;    0,000;1161,20036
 370,70; 1368,701;  255,788;    0,000;1112,91394
 370,87; 1101,140;   66,763;    0,000;1034,37715
 371,03; 1286,041;  221,764;    0,000;1064,27640
 371,20;  920,041; -177,343;    0,000;1097,38413
 371,37; 1251,965;   -1,182;    0,000;1253,14772
 371,53; 1250,942;  129,875;    0,000;1121,06716
 371,70; 1160,991;  -60,127;    0,000;1221,11829
 371,86; 1100,990;   14,762;    0,000;1086,22753
 372,03; 1035,247;  -88,223;    0,000;1123,46961
 372,20; 1376,956;  138,904;    0,000;1238,05131
 372,36; 1418,798;  257,779;    0,000;1161,01847
 372,53; 1708,326;  531,840;    0,000;1176,48603
 372,69; 1157,718;   35,824;    0,000;1121,89433
 372,86; 1739,949;  625,783;    0,000;1114,16660
 373,03; 1225,145;  157,882;    0,000;1067,26339
 373,19; 1122,128;  -23,155;    0,000;1145,28301
 373,36; 1176,523;  150,726;    0,000;1025,79677
 373,52; 1203,872;   77,724;    0,000;1126,14790
 373,69; 1476,890;  281,870;    0,000;1195,01980
 373,86; 1252,856;   82,798;    0,000;1170,05829
 374,02; 1203,428;   86,844;    0,000;1116,58376
 374,19;  973,507; -157,200;    0,000;1130,70715
 374,35; 1269,359;  175,696;    0,000;1093,66300
 374,52; 1265,017;  136,714;    0,000;1128,30356
 374,69;  987,586;  -72,245;    0,000;1059,83131
 374,85; 1083,984; -109,250;    0,000;1193,23432
 375,02; 1224,540;  197,763;    0,000;1026,77715
 375,18; 1441,692;  303,660;    0,000;1138,03224
 375,35; 1146,100;   40,785;    0,000;1105,31546
 375,51; 1011,667;  -64,178;    0,000;1075,84546
 375,68; 1217,477;  147,734;    0,000;1069,74263
 375,85; 1066,707;   26,693;    0,000;1040,01489
 376,01; 1058,962;  -69,191;    0,000;1128,15225
 376,18; 1482,262;  167,811;    0,000;1314,45149
 376,34; 1218,646;   12,776;    0,000;1205,87037
 376,51; 1011,292; -120,126;    0,000;1131,41754
 376,68; 1086,946;    3,776;    0,000;1083,17037
 376,84; 1338,981;  260,744;    0,000;1078,23734
 377,01; 1305,951;   82,787;    0,000;1223,16433
 377,17; 1106,620;   -8,173;    0,000;1114,79282
 377,34; 1279,685;   48,752;    0,000;1230,93281
 377,50; 1305,807;  147,799;    0,000;1158,00791
 377,67; 1089,196;  -37,333;    0,000;1126,52847
 377,84;  898,773; -255,165;    0,000;1153,93867
 378,00; 1334,314;  244,814;    0,000;1089,49961
 378,17; 1143,736;  -34,246;    0,000;1177,98168
 378,33; 1390,769;  236,825;    0,000;1153,94395
 378,50;  649,273; -433,273;    0,000;1082,54640
 378,66; 1210,337;   56,756;    0,000;1153,58093
 378,83; 1471,802;  363,680;    0,000;1108,12168
 379,00; 1139,771;   -0,171;    0,000;1139,94169
 379,16; 1088,122; -122,167;    0,000;1210,28980
 379,33; 1178,935;   49,861;    0,000;1129,07471
 379,49; 1077,741;  -22,236;    0,000;1099,97640
 379,66; 1272,481;   96,850;    0,000;1175,63037
 379,82;  945,926; -228,268;    0,000;1174,19375
 379,99; 1373,335;  263,753;    0,000;1109,58243
 380,16; 1408,083;  266,748;    0,000;1141,33508
 380,32; 1267,142;  161,767;    0,000;1105,37489
 380,49; 1231,575;  199,837;    0,000;1031,73716
 380,65; 1097,042;   12,767;    0,000;1084,27489
 380,82; 1163,239;   -0,240;    0,000;1163,47866
 380,98; 1245,970;    5,828;    0,000;1240,14244
 381,15;  942,951; -165,213;    0,000;1108,16433
 381,32; 1066,412;   32,810;    0,000;1033,60187
 381,48; 1229,435;  -12,248;    0,000;1241,68319
 381,65; 1181,891;   54,873;    0,000;1127,01829
 381,81; 1096,145;  -39,120;    0,000;1135,26414
 381,98; 1149,218;  -54,068;    0,000;1203,28660
 382,14; 1720,015;  649,816;    0,000;1070,19885
 382,31; 1494,284;  288,642;    0,000;1205,64205
 382,47; 2783,323; 1388,834;    0,000;1394,48904
 382,64; 1789,973;  308,726;    0,000;1481,24716
 382,81; 1194,571; -169,170;    0,000;1363,74093
 382,97; 1310,622;   31,833;    0,000;1278,78980
 383,14; 1497,330;  261,848;    0,000;1235,48150
 383,30; 1287,318;   92,824;    0,000;1194,49433
 383,47;  909,007; -266,092;    0,000;1175,09943
 383,63; 1335,854;  175,794;    0,000;1160,06055
 383,80; 1174,315;   77,709;    0,000;1096,60582
 383,97; 1362,681;  231,852;    0,000;1130,82961
 384,13; 1318,096;   79,775;    0,000;1238,32073
 384,30; 1481,060;  383,914;    0,000;1097,14603
 384,46; 1651,948;  273,887;    0,000;1378,06037
 384,63; 1176,722;  -28,277;    0,000;1204,99828
 384,79;  953,452; -202,319;    0,000;1155,77129
 384,96; 1104,200;  -93,215;    0,000;1197,41546
 385,12;  893,986; -154,245;    0,000;1048,23131
 385,29; 1708,803;  441,899;    0,000;1266,90396
 385,45; 1099,990;  -80,236;    0,000;1180,22678
 385,62; 1665,290;  407,871;    0,000;1257,41905
 385,79; 1238,392;   20,659;    0,000;1217,73300
 385,95; 1313,188;  105,759;    0,000;1207,42904
 386,12; 1411,855;  202,795;    0,000;1209,05980
 386,28; 1360,206;  164,905;    0,000;1195,30094
 386,45; 1503,536;  209,862;    0,000;1293,67395
 386,61; 1071,750;  -53,216;    0,000;1124,96584
 386,78; 1563,362;  414,703;    0,000;1148,65923
 386,94; 1119,247;   11,671;    0,000;1107,57658
 387,11; 1071,159;  -78,196;    0,000;1149,35528
 387,27; 1154,327;  -76,158;    0,000;1230,48452
 387,44; 1241,351;   26,787;    0,000;1214,56433
 387,61; 1606,153;  411,791;    0,000;1194,36207
 387,77; 1071,427; -200,265;    0,000;1271,69224
 387,94; 1264,001;   87,786;    0,000;1176,21470
 388,10;  992,213; -226,295;    0,000;1218,50810
 388,27; 1246,456;    1,904;    0,000;1244,55131
 388,43; 1084,180; -158,259;    0,000;1242,43885
 388,60; 1354,521;   46,722;    0,000;1307,79903
 388,76; 1488,091;  265,873;    0,000;1222,21829
 388,93; 1572,116;  365,818;    0,000;1206,29735
 389,09; 1338,798;  102,780;    0,000;1236,01772
 389,26; 1304,476;  -44,052;    0,000;1348,52792
 389,42; 1293,401;   18,788;    0,000;1274,61394
 389,59; 1560,745;  307,989;    0,000;1252,75566
 389,75; 1561,428;  350,844;    0,000;1210,58376
 389,92; 1302,977;   57,843;    0,000;1245,13414
 390,09; 1175,773;  -36,274;    0,000;1212,04716
 390,25; 1354,650;  125,784;    0,000;1228,86584
 390,42; 1285,882;  -34,147;    0,000;1320,02886
 390,58; 1417,962;  239,809;    0,000;1178,15225
 390,75; 1061,603;  -83,210;    0,000;1144,81244
 390,91; 1255,582;  104,854;    0,000;1150,72810
 391,08; 1103,925;  -21,269;    0,000;1125,19450
 391,24; 1130,916; -116,072;    0,000;1246,98886
 391,41; 1302,817;   39,712;    0,000;1263,10432
 391,57; 1569,015;  352,817;    0,000;1216,19810
 391,74; 1321,443;   17,878;    0,000;1303,56565
 391,90; 1525,202;  323,789;    0,000;1201,41319
 392,07; 1407,873;   93,942;    0,000;1313,93094
 392,23;  978,009; -229,088;    0,000;1207,09716
 392,40; 1483,349;  291,783;    0,000;1191,56660
 392,56; 1150,609;  -42,089;    0,000;1192,69792
 392,73; 1467,871;  215,829;    0,000;1252,04169
 392,89; 1360,718;  115,823;    0,000;1244,89508
 393,06; 1292,650;   56,893;    0,000;1235,75735
 393,22; 1141,750; -111,107;    0,000;1252,85735
 393,39; 1678,255;  394,688;    0,000;1283,56752
 393,56; 1440,310;  198,806;    0,000;1241,50414
 393,72; 1814,579;  -36,153;    0,000;1850,73188
 393,89; 3213,521;  182,830;    0,000;3030,69131
 394,05; 5482,604;  255,793;    0,000;5226,81093
 394,22; 3506,025;  125,838;    0,000;3380,18678
 394,38; 1526,654;   46,792;    0,000;1479,86131
 394,55; 1592,192;  300,874;    0,000;1291,31754
 394,71; 1240,541;   22,873;    0,000;1217,66792
 394,88; 1336,458;   78,910;    0,000;1257,54830
 395,04; 1490,322;  208,831;    0,000;1281,49056
 395,21; 1303,181;   51,744;    0,000;1251,43734
 395,37; 1252,019;   61,716;    0,000;1190,30205
 395,54; 1684,841;  369,873;    0,000;1314,96792
 395,70; 1074,030; -169,152;    0,000;1243,18150
 395,87; 1244,049;  -93,110;    0,000;1337,15886
 396,03; 1089,012; -172,081;    0,000;1261,09339
 396,20; 1744,889;  377,976;    0,000;1366,91283
 396,36; 1274,013;   98,813;    0,000;1175,20036
 396,53; 1181,002;  -38,211;    0,000;1219,21319
 396,69; 1551,506;  310,690;    0,000;1240,81640
 396,86; 1234,909;   62,804;    0,000;1172,10489
 397,02; 1535,437;  342,864;    0,000;1192,57320
 397,19; 1083,821;  -80,278;    0,000;1164,09903
 397,35; 1325,864;   48,815;    0,000;1277,04923
 397,52; 1375,774;  193,836;    0,000;1181,93791
 397,68; 1525,991;  326,765;    0,000;1199,22602
 397,85; 1317,820;   63,828;    0,000;1253,99207
 398,01; 1153,690; -112,130;    0,000;1265,81980
 398,18; 1405,957;  134,907;    0,000;1271,04980
 398,34; 1078,727; -179,158;    0,000;1257,88452
 398,51; 1656,052;  429,897;    0,000;1226,15509
 398,67; 1573,316;  319,711;    0,000;1253,60508
 398,84; 1080,350; -135,215;    0,000;1215,56508
 399,00; 1090,604; -119,316;    0,000;1209,91942
 399,17; 1346,749;  112,783;    0,000;1233,96660
 399,33; 1065,416; -109,182;    0,000;1174,59735
 399,50; 1106,722; -165,169;    0,000;1271,89056
 399,66; 1417,801;  141,895;    0,000;1275,90622
 399,83; 1049,923;  -53,274;    0,000;1103,19677
 399,99;  929,398; -156,220;    0,000;1085,61772
 400,16; 1374,916;  219,818;    0,000;1155,09735
 400,32; 1420,255;  164,795;    0,000;1255,45980
 400,49; 1353,548;  125,780;    0,000;1227,76810
 400,65; 1129,613; -111,189;    0,000;1240,80112
 400,82; 1093,780;  -95,151;    0,000;1188,93112
 400,98; 1491,657;  233,799;    0,000;1257,85754
 401,15; 1207,543;   58,878;    0,000;1148,66565
 401,31; 1289,989;  170,652;    0,000;1119,33677
 401,48; 1561,713;  310,811;    0,000;1250,90112
 401,64; 1104,771; -174,279;    0,000;1279,04942
 401,81; 1207,746;   65,776;    0,000;1141,97037
 401,97; 1410,794;  152,772;    0,000;1258,02225
 402,13; 1475,676;  187,733;    0,000;1287,94338
 402,30; 1141,182;  -17,146;    0,000;1158,32810
 402,46; 1128,274; -134,272;    0,000;1262,54564
 402,63; 1355,023;   42,942;    0,000;1312,08132
 402,79; 1348,852;   90,790;    0,000;1258,06282
 402,96; 1330,216;  -82,074;    0,000;1412,28962
 403,12; 1465,820; -324,173;    0,000;1789,99282
 403,29; 2975,634;  -49,142;    0,000;3024,77621
 403,45; 8926,366;  125,710;    0,000;8800,65545
 403,62;18540,478;  314,737;    0,000;18225,74111
 403,78;10829,689;  -52,024;    0,000;10881,71283
 403,95; 6946,405; -254,204;    0,000;7200,60941
 404,11; 3193,916;  447,820;    0,000;2746,09659
 404,28; 1534,718;    0,823;    0,000;1533,89508
 404,44; 1528,771;  161,830;    0,000;1366,94093
 404,61; 1724,377;  163,735;    0,000;1560,64187
 404,77; 1966,979;  559,846;    0,000;1407,13263
 404,94; 1188,287;  -58,243;    0,000;1246,53055
 405,10; 1145,029; -149,153;    0,000;1294,18225
 405,27;  996,043; -247,122;    0,000;1243,16565
 405,43; 1253,529;  -53,044;    0,000;1306,57377
 405,59; 1136,342;   29,659;    0,000;1106,68261
 405,76; 1488,302;  295,897;    0,000;1192,40547
 405,92; 1384,258;  184,693;    0,000;1199,56451
 406,09; 1142,453;  -75,209;    0,000;1217,66207
 406,25; 1652,939;  522,761;    0,000;1130,17791
 406,42; 1211,174;  -58,164;    0,000;1269,33791
 406,58; 1338,189;  155,868;    0,000;1182,32055
 406,75; 1202,638;   32,866;    0,000;1169,77169
 406,91; 1142,161; -140,192;    0,000;1282,35301
 407,08; 1412,852;  169,897;    0,000;1242,95509
 407,24; 1046,696; -185,224;    0,000;1231,91999
 407,41; 1181,667;  -51,178;    0,000;1232,84546
 407,57; 1153,646; -104,115;    0,000;1257,76188
 407,73; 1394,442;  148,767;    0,000;1245,67489
 407,90; 1437,391;  168,765;    0,000;1268,62602
 408,06; 1152,616;    9,820;    0,000;1142,79659
 408,23; 1492,053;  215,899;    0,000;1276,15434
 408,39; 1392,986;  126,969;    0,000;1266,01660
 408,56; 1369,572;   47,832;    0,000;1321,74018
 408,72;  968,101; -207,106;    0,000;1175,20697
 408,89; 1444,941;  176,764;    0,000;1268,17640
 409,05; 1135,642;    2,875;    0,000;1132,76716
 409,22; 1306,022;    4,831;    0,000;1301,19056
 409,38; 1378,556; -129,094;    0,000;1507,65056
 409,54; 1379,672;   37,832;    0,000;1341,84018
 409,71; 1430,909;  220,804;    0,000;1210,10489
 409,87; 1183,148; -105,111;    0,000;1288,25962
 410,04; 1623,117;  360,821;    0,000;1262,29584
 410,20; 1618,029;  360,847;    0,000;1257,18225
 410,37; 1123,654; -204,100;    0,000;1327,75358
 410,53; 1281,713;    1,811;    0,000;1279,90112
 410,70; 1452,398;  331,779;    0,000;1120,61847
 410,86; 1105,820;  -98,172;    0,000;1203,99207
 411,03; 1241,069;   94,826;    0,000;1146,24320
 411,19;  941,789; -254,239;    0,000;1196,02829
 411,35; 1118,269; -124,281;    0,000;1242,55093
 411,52; 1092,734; -168,250;    0,000;1260,98394
 411,68; 1117,891; -176,127;    0,000;1294,01829
 411,85; 1073,482; -175,147;    0,000;1248,62886
 412,01; 1315,985;   95,860;    0,000;1220,12508
 412,18; 1267,761;   49,808;    0,000;1217,95301
 412,34; 1365,119;  218,826;    0,000;1146,29357
 412,51; 1336,266;   -2,181;    0,000;1338,44697
 412,67; 1339,608;   52,802;    0,000;1286,80640
 412,83; 1589,352;  188,005;    0,000;1401,34736
 413,00; 1199,486;   23,754;    0,000;1175,73205
 413,16; 1415,617;  116,929;    0,000;1298,68811
 413,33; 1327,075;  129,839;    0,000;1197,23641
 413,49; 1369,554;   51,686;    0,000;1317,86828
 413,66; 1174,411; -135,193;    0,000;1309,60338
 413,82; 1512,156;  187,690;    0,000;1324,46602
 413,98; 1369,016;    4,711;    0,000;1364,30508
 414,15; 1290,632; -121,146;    0,000;1411,77848
 414,31; 1783,899;  198,890;    0,000;1585,00924
 414,48; 1841,159;   25,696;    0,000;1815,46300
 414,64; 2870,335;  170,861;    0,000;2699,47471
 414,81; 8373,364;  105,923;    0,000;8267,44151
 414,97;28502,498; -108,112;    0,000;28610,60999
 415,13;27718,325;  -33,162;    0,000;27751,48678
 415,30; 6455,958;  287,909;    0,000;6168,04905
 415,46; 4136,996;  -63,117;    0,000;4200,11301
 415,63; 5416,167;  -34,179;    0,000;5450,34621
 415,79; 2917,554;  181,900;    0,000;2735,65358
 415,96; 1269,915; -208,183;    0,000;1478,09810
 416,12; 1436,626;   57,841;    0,000;1378,78528
 416,28; 1188,369;  -83,066;    0,000;1271,43547
 416,45; 1411,981;  -33,148;    0,000;1445,12961
 416,61; 1121,048; -172,113;    0,000;1293,16037
 416,78; 1286,281; -116,148;    0,000;1402,42961
 416,94; 1834,875;  423,839;    0,000;1411,03641
 417,11; 2209,899;  227,782;    0,000;1982,11696
 417,27; 4567,784;   69,750;    0,000;4498,03432
 417,43; 5675,252;   65,790;    0,000;5609,46282
 417,60; 2570,224;  274,837;    0,000;2295,38754
 417,76; 1843,155;   17,903;    0,000;1825,25207
 417,93; 2369,768;  120,931;    0,000;2248,83697
 418,09; 5569,522;  230,725;    0,000;5338,79752
 418,26;12244,903;  -50,102;    0,000;12295,00471
 418,42; 7103,815;   68,708;    0,000;7035,10658
 418,58; 2683,269;   31,934;    0,000;2651,33547
 418,75; 3950,820;  307,827;    0,000;3642,99282
 418,91;11470,670;  171,828;    0,000;11298,84244
 419,08;23343,385;  -55,032;    0,000;23398,41736
 419,24;34490,594;  214,772;    0,000;34275,82225
 419,40;17247,120; -154,172;    0,000;17401,29207
 419,57; 3607,358;  398,910;    0,000;3208,44830
 419,73; 1543,892; -176,125;    0,000;1720,01678
 419,90; 1528,939;   88,977;    0,000;1439,96245
 420,06; 1582,950;  326,784;    0,000;1256,16584
 420,22; 1610,624;  291,728;    0,000;1318,89602
 420,39; 1287,861;   -3,192;    0,000;1291,05301
 420,55; 1374,949;  224,781;    0,000;1150,16734
 420,72; 1409,051;   59,894;    0,000;1349,15660
 420,88; 1200,532;  -80,146;    0,000;1280,67848
 421,05; 1399,798;  181,780;    0,000;1218,01772
 421,21; 1457,175;  160,837;    0,000;1296,33716
 421,37; 1321,038;  -28,134;    0,000;1349,17169
 421,54; 1383,119;  116,826;    0,000;1266,29357
 421,70; 1286,135;  111,752;    0,000;1174,38319
 421,87; 1243,653; -110,101;    0,000;1353,75434
 422,03; 1538,257;  303,799;    0,000;1234,45754
 422,19; 1212,511;  -47,191;    0,000;1259,70263
 422,36; 1351,039;  113,760;    0,000;1237,27866
 422,52; 1083,264;  -41,185;    0,000;1124,44923
 422,69; 1101,508; -115,198;    0,000;1216,70640
 422,85; 1452,880;  228,849;    0,000;1224,03112
 423,01; 1493,458;  321,802;    0,000;1171,65602
 423,18; 1624,302;  411,897;    0,000;1212,40547
 423,34; 1516,965;  310,816;    0,000;1206,14848
 423,51; 1286,726;   44,840;    0,000;1241,88603
 423,67; 1436,823;   59,942;    0,000;1376,88132
 423,83; 1378,662;  -10,191;    0,000;1388,85225
 424,00; 1628,809;  263,804;    0,000;1365,00489
 424,16; 2141,899;   19,890;    0,000;2122,00924
 424,32; 3235,134;  207,749;    0,000;3027,38470
 424,49; 2001,390;  -17,023;    0,000;2018,41207
 424,65; 1569,136;   46,754;    0,000;1522,38168
 424,82; 2114,451; -141,106;    0,000;2255,55660
 424,98; 6100,837;  -24,136;    0,000;6124,97320
 425,14;10604,629;   60,954;    0,000;10543,67452
 425,31; 4838,528;  168,844;    0,000;4669,68376
 425,47; 2335,512;   51,919;    0,000;2283,59339
 425,64; 4177,210;  120,913;    0,000;4056,29641
 425,80; 8638,967;  146,713;    0,000;8492,25395
 425,96; 5099,179; -104,153;    0,000;5203,33188
 426,13; 3691,177;  440,842;    0,000;3250,33490
 426,29; 9145,627;   87,842;    0,000;9057,78452
 426,46;12863,988;  252,867;    0,000;12611,12131
 426,62; 3997,074;  100,728;    0,000;3896,34564
 426,78; 1908,455;  174,903;    0,000;1733,55207
 426,95; 1258,850;  -66,108;    0,000;1324,95811
 427,11; 1509,830;  208,849;    0,000;1300,98075
 427,27; 1444,060;  267,913;    0,000;1176,14679
 427,44; 1807,542;  630,767;    0,000;1176,77489
 427,60; 1899,996;  568,776;    0,000;1331,21999
 427,77; 1553,210;  309,913;    0,000;1243,29641
 427,93; 1531,400;  153,785;    0,000;1377,61546
 428,09; 1585,401;  332,894;    0,000;1252,50697
 428,26; 1544,724;  246,835;    0,000;1297,88829
 428,42; 1158,256; -187,096;    0,000;1345,35131
 428,58; 1356,890;  106,764;    0,000;1250,12678
 428,75; 1450,930;  -20,043;    0,000;1470,97302
 428,91; 2267,291;  -54,020;    0,000;2321,31056
 429,08; 6604,511;   73,807;    0,000;6530,70338
 429,24; 9912,240;  -36,129;    0,000;9948,36942
 429,40; 3541,192;   55,874;    0,000;3485,31754
 429,57; 1699,790;  119,977;    0,000;1579,81207
 429,73; 1377,144;   85,771;    0,000;1291,37263
 429,89; 1311,405;   46,796;    0,000;1264,60941
 430,06; 1548,860;  318,805;    0,000;1230,05452
 430,22; 1626,377;  347,843;    0,000;1278,53414
 430,39; 1393,839;  192,761;    0,000;1201,07791
 430,55; 1355,697;   50,885;    0,000;1304,81150
 430,71; 1785,928;  573,953;    0,000;1211,97528
 430,88; 1017,018; -277,177;    0,000;1294,19508
 431,04; 1385,153;  158,899;    0,000;1226,25434
 431,20; 1422,224;  119,835;    0,000;1302,38829
 431,37; 1173,189;  -40,239;    0,000;1213,42829
 431,53; 1287,565;    0,818;    0,000;1286,74772
 431,69; 1444,563;   69,921;    0,000;1374,64226
 431,86; 1583,939;  264,760;    0,000;1319,17866
 432,02; 1357,694;    8,880;    0,000;1348,81452
 432,19; 1948,640;  201,978;    0,000;1746,66170
 432,35; 3991,213;   32,811;    0,000;3958,40112
 432,51;10493,418;  502,824;    0,000;9990,59433
 432,68; 9450,269;  410,826;    0,000;9039,44320
 432,84; 3957,299; -104,109;    0,000;4061,40848
 433,00; 1914,339; -244,131;    0,000;2158,47018
 433,17; 2621,993;  -66,015;    0,000;2688,00830
 433,33; 2660,817;   19,821;    0,000;2640,99584
 433,49; 2261,924;  -61,057;    0,000;2322,98056
 433,66; 4056,152;   44,896;    0,000;4011,25584
 433,82; 3018,365; -110,075;    0,000;3128,43999
 433,98; 1738,845;  179,882;    0,000;1558,96339
 434,15; 1281,564;  -32,077;    0,000;1313,64151
 434,31; 1496,786;  195,861;    0,000;1300,92433
 434,48; 1159,435; -122,033;    0,000;1281,46773
 434,64; 1318,205;  217,795;    0,000;1100,41017
 434,80; 1514,564;  257,814;    0,000;1256,74999
 434,97; 1522,108;  264,909;    0,000;1257,19867
 435,13; 1306,011;  181,916;    0,000;1124,09490
 435,29; 1260,881;   31,850;    0,000;1229,03037
 435,46; 1323,982;   24,854;    0,000;1299,12810
 435,62; 1521,454;  141,792;    0,000;1379,66131
 435,78; 1297,739;   75,977;    0,000;1221,76245
 435,95; 1189,128;  -26,155;    0,000;1215,28301
 436,11;  993,663; -214,188;    0,000;1207,85074
 436,27; 1033,096; -185,117;    0,000;1218,21301
 436,44; 1201,887;    0,864;    0,000;1201,02282
 436,60; 1406,225;  224,946;    0,000;1181,27905
 436,76;  970,091;  -71,343;    0,000;1041,43375
 436,93; 1343,585;  109,968;    0,000;1233,61736
 437,09; 1383,737;  130,973;    0,000;1252,76472
 437,25; 1028,858; -270,984;    0,000;1299,84132
 437,42; 1319,134;   77,858;    0,000;1241,27621
 437,58; 1476,338;  340,866;    0,000;1135,47169
 437,74; 1084,291;  -63,235;    0,000;1147,52602
 437,91; 1420,580;  179,958;    0,000;1240,62264
 438,07; 1630,178;  385,845;    0,000;1244,33338
 438,23; 1548,950;  235,784;    0,000;1313,16584
 438,40; 1164,909; -218,197;    0,000;1383,10564
 438,56; 1511,874;  160,836;    0,000;1351,03791
 438,72; 1044,092; -260,126;    0,000;1304,21754
 438,89; 1065,332; -168,039;    0,000;1233,37075
 439,05; 1147,216;  -20,182;    0,000;1167,39735
 439,21;  992,784; -110,141;    0,000;1102,92584
 439,38; 1393,519;  207,826;    0,000;1185,69357
 439,54; 1647,267;  428,928;    0,000;1218,33849
 439,70; 1431,439;  231,869;    0,000;1199,57018
 439,87; 1258,111;  124,916;    0,000;1133,19490
 440,03; 1169,384;   94,857;    0,000;1074,52659
 440,19; 1491,090;  348,870;    0,000;1142,21980
 440,36; 1196,183;  193,747;    0,000;1002,43584
 440,52; 1485,929;  260,847;    0,000;1225,08225
 440,68; 1018,072; -170,276;    0,000;1188,34790
 440,85; 1058,256;   -2,202;    0,000;1060,45829
 441,01; 1250,234;  -44,142;    0,000;1294,37621
 441,17; 1216,247;   47,886;    0,000;1168,36113
 441,34; 1379,763;  171,812;    0,000;1207,95074
 441,50; 1359,179;   -8,153;    0,000;1367,33188
 441,66; 1545,967;  358,821;    0,000;1187,14621
 441,83; 1285,050;   70,893;    0,000;1214,15735
 441,99; 1145,503;  -30,208;    0,000;1175,71168
 442,15; 1842,402;  492,680;    0,000;1349,72168
 442,32; 1104,484;  -44,034;    0,000;1148,51811
 442,48; 1534,648;  355,887;    0,000;1178,76037
 442,64; 1435,949;  256,781;    0,000;1179,16734
 442,80; 1512,997;  443,885;    0,000;1069,11150
 442,97; 1145,256;  -20,202;    0,000;1165,45829
 443,13; 1022,858; -137,198;    0,000;1160,05602
 443,29; 1068,753;  -82,209;    0,000;1150,96207
 443,46; 1285,693;   74,986;    0,000;1210,70755
 443,62; 1564,780;  397,849;    0,000;1166,93112
 443,78; 2145,841;  934,872;    0,000;1210,96867
 443,95; 1128,671;  -41,170;    0,000;1169,84093
 444,11; 1203,322;  107,833;    0,000;1095,48980
 444,27; 1240,865;  114,816;    0,000;1126,04848
 444,44; 1318,139;  157,868;    0,000;1160,27093
 444,60; 1472,027;  336,842;    0,000;1135,18452
 444,76; 1344,678;  275,845;    0,000;1068,83338
 444,92; 1083,481;   49,742;    0,000;1033,73810
 445,09; 1104,511;  -18,193;    0,000;1122,70338
 445,25; 1132,965;   -9,182;    0,000;1142,14772
 445,41; 1234,869;  168,932;    0,000;1065,93622
 445,58; 1126,769;   41,825;    0,000;1084,94395
 445,74; 1271,224;   67,943;    0,000;1203,28056
 445,90; 1107,915;  -21,183;    0,000;1129,09810
 446,07; 1382,873;  291,835;    0,000;1091,03867
 446,23; 1082,449; -152,110;    0,000;1234,55886
 446,39;  925,345;  -94,120;    0,000;1019,46414
 446,56; 1223,224;   55,944;    0,000;1167,27981
 446,72; 1388,754;  339,792;    0,000;1048,96131
 446,88; 1241,607;   49,800;    0,000;1191,80715
 447,04; 1434,323;  336,834;    0,000;1097,48904
 447,21; 1408,982;  332,745;    0,000;1076,23658
 447,37; 1531,150;  406,892;    0,000;1124,25811
 447,53; 1420,803;  187,898;    0,000;1232,90471
 447,70; 1300,952;  127,897;    0,000;1173,05509
 447,86;  940,462; -148,189;    0,000;1088,65149
 448,02; 1274,048;  154,889;    0,000;1119,15962
 448,18; 1537,277;  296,951;    0,000;1240,32641
 448,35; 1173,765;  -87,182;    0,000;1260,94772
 448,51; 1609,786;  135,970;    0,000;1473,81585
 448,67; 1961,360;  340,807;    0,000;1620,55376
 448,84; 2110,731;  318,851;    0,000;1791,87999
 449,00; 2020,765;  -11,182;    0,000;2031,94772
 449,16; 1650,798;  207,888;    0,000;1442,90999
 449,33; 1254,520;    8,936;    0,000;1245,58433
 449,49; 1528,301;  325,788;    0,000;1202,51394
 449,65; 1156,326;  -56,051;    0,000;1212,37754
 449,81; 1409,606;  139,905;    0,000;1269,70094
 449,98; 1887,458;  318,801;    0,000;1568,65678
 450,14; 4079,705;  107,796;    0,000;3971,90941
 450,30; 5399,844;  -18,121;    0,000;5417,96490
 450,46; 2262,330;  -84,152;    0,000;2346,48150
 450,63; 1588,903;  294,792;    0,000;1294,11168
 450,79; 1309,959;  164,804;    0,000;1145,15528
 450,95; 1418,019;  162,933;    0,000;1255,08584
 451,12; 1326,992;   56,875;    0,000;1270,11678
 451,28; 2221,450;  334,784;    0,000;1886,66584
 451,44; 2801,041;  202,764;    0,000;2598,27640
 451,60; 2089,275;  432,947;    0,000;1656,32868
 451,77; 1327,816;  -54,965;    0,000;1382,78113
 451,93; 1132,854;   27,009;    0,000;1105,84509
 452,09; 1000,423;  -89,166;    0,000;1089,58904
 452,26; 1229,905;  109,795;    0,000;1120,11017
 452,42; 1210,094;   69,878;    0,000;1140,21527
 452,58; 1326,139;  202,869;    0,000;1123,27018
 452,74;  917,561; -247,084;    0,000;1164,64528
 452,91; 1144,243;   87,876;    0,000;1056,36641
 453,07; 1340,758;  147,018;    0,000;1193,74057
 453,23; 1492,440;  305,763;    0,000;1186,67715
 453,39; 1105,857;  -79,093;    0,000;1184,94980
 453,56; 1327,913;  130,811;    0,000;1197,10112
 453,72; 1214,303; -100,101;    0,000;1314,40396
 453,88; 1341,863;  215,921;    0,000;1125,94226
 454,05; 1480,778;  338,845;    0,000;1141,93338
 454,21; 1127,284;   48,857;    0,000;1078,42659
 454,37; 1079,727;  -81,050;    0,000;1160,77679
 454,53; 1344,000;  213,000;    0,000;1131,00000
 454,70; 1260,609;  153,912;    0,000;1106,69716
 454,86; 1035,515;  -32,075;    0,000;1067,59037
 455,02; 1252,160;  107,914;    0,000;1144,24603
 455,18; 1026,435;  -22,139;    0,000;1048,57471
 455,35;  953,277; -202,158;    0,000;1155,43490
 455,51; 1688,901;  573,894;    0,000;1115,00697
 455,67; 1033,693;  -62,015;    0,000;1095,70830
 455,83; 1129,311;   76,916;    0,000;1052,39490
 456,00;  953,344; -187,121;    0,000;1140,46490
 456,16; 1121,446;   -2,008;    0,000;1123,45415
 456,32; 1635,111;  486,809;    0,000;1148,30263
 456,48; 1171,376;   -8,052;    0,000;1179,42792
 456,65; 1332,691;  128,088;    0,000;1204,60284
 456,81; 1274,298;  216,780;    0,000;1057,51772
 456,97; 1369,979;  300,740;    0,000;1069,23961
 457,13; 1154,658;   37,910;    0,000;1116,74830
 457,30; 1146,184;   45,750;    0,000;1100,43432
 457,46; 1067,529; -117,046;    0,000;1184,57452
 457,62; 1769,029;  511,954;    0,000;1257,07452
 457,78; 1470,760;  262,807;    0,000;1207,95376
 457,95; 1276,741;  178,980;    0,000;1097,76094
 458,11; 1746,365;  583,925;    0,000;1162,43999
 458,27; 1235,652;   38,897;    0,000;1196,75509
 458,43; 1452,322;  276,940;    0,000;1175,38207
 458,60; 1797,806;  292,797;    0,000;1505,00867
 458,76; 2549,137;   73,864;    0,000;2475,27320
 458,92; 2018,137;  -90,136;    0,000;2108,27320
 459,08; 1576,118;  192,038;    0,000;1384,07963
 459,25; 1351,910;  243,806;    0,000;1108,10414
 459,41; 1059,149; -119,002;    0,000;1178,15113
 459,57; 1173,384;   86,859;    0,000;1086,52584
 459,73;  776,367; -198,070;    0,000;974,43773
 459,90; 1326,745;  209,989;    0,000;1116,75566
 460,06; 1045,092;   18,874;    0,000;1026,21754
 460,22; 1069,647;   25,886;    0,000;1043,76113
 460,38;  918,926; -192,051;    0,000;1110,97754
 460,55;  904,559; -263,089;    0,000;1167,64754
 460,71;  895,482; -148,039;    0,000;1043,52113
 460,87; 1388,250;  298,893;    0,000;1089,35735
 461,03;  824,556; -232,096;    0,000;1056,65131
 461,20;  865,692; -166,125;    0,000;1031,81678
 461,36;  781,309; -269,196;    0,000;1050,50489
 461,52;  826,161; -336,084;    0,000;1162,24528
 461,68; 1069,348; -150,113;    0,000;1219,46037
 461,85; 1591,237;  167,973;    0,000;1423,26472
 462,01; 2577,882;  388,068;    0,000;2189,81340
 462,17; 1569,524;  -79,163;    0,000;1648,68754
 462,33; 1159,808;  -85,091;    0,000;1244,89867
 462,49; 1101,384;   14,859;    0,000;1086,52584
 462,66; 1012,451;  -52,998;    0,000;1065,44887
 462,82; 1074,031;  109,851;    0,000;964,17999
 462,98;  811,280; -183,044;    0,000;994,32339
 463,14; 1008,952; -136,996;    0,000;1145,94811
 463,31;  965,003;  -52,101;    0,000;1017,10396
 463,47;  944,965; -261,076;    0,000;1206,04075
 463,63; 1213,334;   93,966;    0,000;1119,36849
 463,79; 1090,298;  -20,004;    0,000;1110,30226
 463,96; 1149,246;   99,776;    0,000;1049,47037
 464,12; 1039,979;   25,846;    0,000;1014,13263
 464,28; 1069,115;   27,925;    0,000;1041,19037
 464,44; 1390,924;  310,944;    0,000;1079,97981
 464,60; 1219,209;  218,912;    0,000;1000,29716
 464,77; 1136,154;  137,794;    0,000;998,36055
 464,93; 1001,656;  -77,988;    0,000;1079,64359
 465,09; 1170,658;   23,909;    0,000;1146,74905
 465,25; 1476,464;  365,923;    0,000;1110,54151
 465,42; 1568,405;  114,904;    0,000;1453,50169
 465,58; 2976,345;   41,882;    0,000;2934,46339
 465,74; 3426,634;   74,858;    0,000;3351,77621
 465,90; 4187,800;  124,892;    0,000;4062,90773
 466,06; 5795,807;  -68,985;    0,000;5864,79170
 466,23; 3062,515;  219,816;    0,000;2842,69885
 466,39; 1313,709; -147,088;    0,000;1460,79716
 466,55; 1487,227;  395,842;    0,000;1091,38452
 466,71;  946,886; -160,030;    0,000;1106,91585
 466,87; 1037,962;  -88,083;    0,000;1126,04452
 467,04; 1117,439;  161,869;    0,000;955,57018
 467,20;  878,051; -208,998;    0,000;1087,04887
 467,36; 1212,481;  219,850;    0,000;992,63037
 467,52;  963,776; -191,052;    0,000;1154,82792
 467,68; 1155,757;  115,907;    0,000;1039,84980
 467,85; 1293,623;  241,834;    0,000;1051,78904
 468,01;  913,638; -153,134;    0,000;1066,77169
 468,17; 1186,812;  106,918;    0,000;1079,89415
 468,33;  880,943; -218,124;    0,000;1099,06641
 468,50; 1000,280;  -77,151;    0,000;1077,43112
 468,66;  975,994;  -65,122;    0,000;1041,11527
 468,82; 1191,781;  157,959;    0,000;1033,82188
 468,98; 1826,130;  708,849;    0,000;1117,28075
 469,14; 1142,360; -255,978;    0,000;1398,33830
 469,31; 2552,051;  108,894;    0,000;2443,15660
 469,47; 2723,426; -280,053;    0,000;3003,47830
 469,63; 1628,015;   24,817;    0,000;1603,19810
 469,79; 1420,221;  248,937;    0,000;1171,28358
 469,95; 1046,924;   67,835;    0,000;979,08829
 470,12; 1256,696;   92,884;    0,000;1163,81226
 470,28; 1141,265;   51,924;    0,000;1089,34075
 470,44; 1510,462;  394,918;    0,000;1115,54377
 470,60;  986,066;   -2,073;    0,000;988,13924
 470,76; 1366,176;  248,948;    0,000;1117,22792
 470,92; 1289,522;   95,939;    0,000;1193,58283
 471,09; 1577,493;  437,092;    0,000;1140,40057
 471,25; 1227,263;  182,812;    0,000;1044,45074
 471,41;  973,887;  -76,243;    0,000;1050,13055
 471,57; 1430,833;  325,856;    0,000;1104,97697
 471,73; 1047,317;   32,821;    0,000;1014,49584
 471,90; 1085,261; -112,084;    0,000;1197,34528
 472,06; 1412,405;  310,010;    0,000;1102,39472
 472,22; 1067,973;  -48,059;    0,000;1116,03169
 472,38; 1268,073;  273,835;    0,000;994,23867
 472,54; 1314,844;  313,771;    0,000;1001,07263
 472,71; 1446,515;  316,925;    0,000;1129,59037
 472,87; 1000,207; -121,200;    0,000;1121,40715
 473,03;  908,646; -181,115;    0,000;1089,76188
 473,19; 1311,860;  197,022;    0,000;1114,83830
 473,35; 1115,926;    1,841;    0,000;1114,08528
 473,52; 1084,570;  -48,172;    0,000;1132,74244
 473,68; 1433,260;  225,913;    0,000;1207,34679
 473,84; 1395,999;  -99,109;    0,000;1495,10848
 474,00; 2072,869;  121,040;    0,000;1951,82849
 474,16; 2394,880;  642,849;    0,000;1752,03112
 474,32; 2732,721;   98,937;    0,000;2633,78358
 474,49; 2600,656;  422,797;    0,000;2177,85905
 474,65; 1476,892;   32,982;    0,000;1443,90981
 474,81; 1382,103;  205,898;    0,000;1176,20471
 474,97; 1020,059;  -42,089;    0,000;1062,14754
 475,13;  951,128; -205,264;    0,000;1156,39149
 475,29; 1136,069;  -40,066;    0,000;1176,13547
 475,46;  863,669; -272,066;    0,000;1135,73547
 475,62; 1088,511;  -70,085;    0,000;1158,59565
 475,78; 1479,763;  444,920;    0,000;1034,84301
 475,94; 1354,878;   95,954;    0,000;1258,92490
 476,10; 1497,200;  171,892;    0,000;1325,30773
 476,26; 1548,399;  382,999;    0,000;1165,40075
 476,43;  638,212; -583,081;    0,000;1221,29339
 476,59; 1668,641;  666,873;    0,000;1001,76792
 476,75; 1301,847;  155,886;    0,000;1145,96113
 476,91; 1011,470; -125,172;    0,000;1136,64244
 477,07; 1411,852;  199,004;    0,000;1212,84811
 477,23; 1121,688;  -67,027;    0,000;1188,71434
 477,40; 1205,027;   42,951;    0,000;1162,07604
 477,56; 1058,638; -129,026;    0,000;1187,66396
 477,72;  957,969;  -87,174;    0,000;1045,14320
 477,88; 1267,759;  104,019;    0,000;1163,73981
 478,04; 1413,018;  233,824;    0,000;1179,19433
 478,20;  779,342; -384,125;    0,000;1163,46716
 478,37; 1290,518;  152,823;    0,000;1137,69508
 478,53; 1069,216;  -36,966;    0,000;1106,18189
 478,69; 1122,564;  -97,970;    0,000;1220,53378
 478,85; 1295,421;  131,830;    0,000;1163,59131
 479,01; 1144,969; -110,068;    0,000;1255,03622
 479,17; 1528,219;  374,933;    0,000;1153,28584
 479,34; 1211,287;   40,972;    0,000;1170,31509
 479,50; 1371,426;  161,947;    0,000;1209,47830
 479,66; 1130,154;  -14,100;    0,000;1144,25358
 479,82; 1172,930;  -60,043;    0,000;1232,97302
 479,98; 1579,348;  304,996;    0,000;1274,35189
 480,14; 1615,373;  156,941;    0,000;1458,43169
 480,31; 1291,470; -161,065;    0,000;1452,53471
 480,47; 1287,491;   31,873;    0,000;1255,61829
 480,63; 1920,381;  427,850;    0,000;1492,53037
 480,79; 1328,827;  -85,050;    0,000;1413,87679
 480,95; 1276,241;   23,873;    0,000;1252,36792
 481,11; 1230,356;  -82,203;    0,000;1312,55905
 481,27; 1435,129;  123,954;    0,000;1311,17452
 481,44; 1091,007; -143,094;    0,000;1234,10018
 481,60; 1158,256;  -90,987;    0,000;1249,24283
 481,76; 1424,375;  138,945;    0,000;1285,42943
 481,92; 1340,079;   32,847;    0,000;1307,23188
 482,08; 1362,278;  126,845;    0,000;1235,43338
 482,24; 1342,152;  142,004;    0,000;1200,14811
 482,40; 1381,623;  158,942;    0,000;1222,68132
 482,57; 1757,169;  436,932;    0,000;1320,23622
 482,73; 1614,513;  354,920;    0,000;1259,59264
 482,89; 1435,986;   72,970;    0,000;1363,01585
 483,05; 1209,940;  -10,129;    0,000;1220,06942
 483,21; 1164,588;    4,867;    0,000;1159,72131
 483,37; 1249,327;  -36,941;    0,000;1286,26831
 483,53; 1295,015;  102,816;    0,000;1192,19885
 483,70; 1125,214; -119,077;    0,000;1244,29113
 483,86; 1108,026;  -81,051;    0,000;1189,07754
 484,02; 1339,359;   47,019;    0,000;1292,33981
 484,18; 1419,681;  172,852;    0,000;1246,82961
 484,34; 1662,390;  369,979;    0,000;1292,41132
 484,50; 1382,524;   31,944;    0,000;1350,57981
 484,66; 1410,031;   23,958;    0,000;1386,07226
 484,82; 1526,612;  106,810;    0,000;1419,80187
 484,99; 2016,281;   94,959;    0,000;1921,32188
 485,15; 6293,950; -233,107;    0,000;6527,05735
 485,31;13992,462; -159,082;    0,000;14151,54377
 485,47; 7951,373;   23,942;    0,000;7927,43094
 485,63; 3223,633;  231,963;    0,000;2991,67000
 485,79; 1931,929;  136,954;    0,000;1794,97452
 485,95; 1733,117;  223,929;    0,000;1509,18811
 486,12; 1288,043;   -6,231;    0,000;1294,27414
 486,28; 1231,008;  -65,091;    0,000;1296,09867
 486,44; 1234,003;  -70,102;    0,000;1304,10471
 486,60; 1076,117; -211,071;    0,000;1287,18811
 486,76; 1655,069;  -62,068;    0,000;1717,13622
 486,92; 1623,989;   67,868;    0,000;1556,12055
 487,08; 1559,677;  248,735;    0,000;1310,94187
 487,24; 1408,711;   81,915;    0,000;1326,79565
 487,40; 1248,679;  -36,153;    0,000;1284,83188
 487,57; 1375,072;   41,939;    0,000;1333,13245
 487,73; 1461,936;  -48,138;    0,000;1510,07395
 487,89; 1714,546;   38,885;    0,000;1675,66188
 488,05; 2135,300;  387,000;    0,000;1748,30000
 488,21; 1581,835;  146,968;    0,000;1434,86698
 488,37; 1449,994;   56,987;    0,000;1393,00679
 488,53; 1673,912;  157,025;    0,000;1516,88642
 488,69; 2004,858;  503,018;    0,000;1501,84057
 488,86; 1779,532;  355,961;    0,000;1423,57075
 489,02; 1168,045; -129,118;    0,000;1297,16339
 489,18; 1282,539;   28,869;    0,000;1253,67018
 489,34; 1595,809;  319,912;    0,000;1275,89716
 489,50; 1525,477;  169,949;    0,000;1355,52717
 489,66; 1271,359;  -34,089;    0,000;1305,44754
 489,82; 1236,305; -124,098;    0,000;1360,40245
 489,98; 1245,121;  -86,170;    0,000;1331,29131
 490,14; 1239,467; -110,963;    0,000;1350,43000
 490,31; 1239,452;    0,788;    0,000;1238,66357
 490,47; 1383,669;  147,826;    0,000;1235,84320
 490,63; 1679,609;  355,911;    0,000;1323,69792
 490,79; 1171,152; -226,103;    0,000;1397,25509
 490,95; 1441,445;   99,880;    0,000;1341,56414
 491,11; 1474,967;  168,821;    0,000;1306,14621
 491,27; 1284,083;  -42,144;    0,000;1326,22735
 491,43; 1240,094; -175,013;    0,000;1415,10679
 491,59; 1400,622;  100,831;    0,000;1299,79056
 491,75; 1399,820;  116,828;    0,000;1282,99207
 491,92; 1802,568;  433,931;    0,000;1368,63697
 492,08; 1486,164;  215,815;    0,000;1270,34923
 492,24; 1617,995;  267,990;    0,000;1350,00528
 492,40; 1780,229;  470,847;    0,000;1309,38225
 492,56; 1772,557;  333,907;    0,000;1438,64980
 492,72; 1235,790;  -88,021;    0,000;1323,81132
 492,88; 1334,643;  -80,122;    0,000;1414,76565
 493,04; 1644,398;  294,888;    0,000;1349,50999
 493,20; 1366,208;  -20,983;    0,000;1387,19094
 493,36; 1276,496;  -22,116;    0,000;1298,61226
 493,53; 1313,877;  -40,265;    0,000;1354,14187
 493,69; 1548,666;  176,927;    0,000;1371,73924
 493,85; 1451,305;  172,796;    0,000;1278,50941
 494,01; 1183,639; -144,131;    0,000;1327,77018
 494,17; 1409,635;  208,861;    0,000;1200,77471
 494,33; 1601,684;  224,966;    0,000;1376,71811
 494,49; 1537,326;  167,947;    0,000;1369,37830
 494,65; 1711,776;  291,056;    0,000;1420,72019
 494,81; 1386,935; -176,033;    0,000;1562,96773
 494,97; 1668,229;  258,956;    0,000;1409,27377
 495,13; 1653,024;  223,943;    0,000;1429,08056
 495,29; 1488,678;  140,952;    0,000;1347,72566
 495,46; 1239,150;  -77,108;    0,000;1316,25811
 495,62; 1103,739; -281,131;    0,000;1384,87018
 495,78; 1031,015; -291,184;    0,000;1322,19885
 495,94; 1403,905;  -25,098;    0,000;1429,00245
 496,10; 1782,219;  329,933;    0,000;1452,28584
 496,26; 1604,375;   85,837;    0,000;1518,53716
 496,42; 1668,930;   -9,152;    0,000;1678,08150
 496,58; 2228,767;  242,930;    0,000;1985,83773
 496,74; 3273,666;   38,927;    0,000;3234,73924
 496,90;13802,743;  231,876;    0,000;13570,86641
 497,06;23643,518; -265,068;    0,000;23908,58660
 497,22;16878,522;  391,939;    0,000;16486,58283
 497,39;39067,260;  222,807;    0,000;38844,45376
 497,55;38340,927;  365,951;    0,000;37974,97604
 497,71;12803,356;  155,906;    0,000;12647,45056
 497,87; 4158,946;  -50,009;    0,000;4208,95491
 498,03; 2078,267; -116,179;    0,000;2194,44621
 498,19; 1681,188;  -48,025;    0,000;1729,21358
 498,35; 1922,952;  436,790;    0,000;1486,16282
 498,51; 1550,388;  144,867;    0,000;1405,52131
 498,67; 1199,358; -129,091;    0,000;1328,44905
 498,83; 1463,790;  266,977;    0,000;1196,81207
 498,99; 1464,711;   43,916;    0,000;1420,79490
 499,15; 1309,548;  -71,113;    0,000;1380,66037
 499,31; 1346,032;   71,854;    0,000;1274,17848
 499,47; 1517,711;  193,809;    0,000;1323,90263
 499,63; 1480,804;   80,901;    0,000;1399,90320
 499,80; 1353,927;    0,842;    0,000;1353,08452
 499,96; 1140,242;  -92,233;    0,000;1232,47489
 500,12; 1860,710;  427,021;    0,000;1433,68868
 500,28; 1725,298;  353,103;    0,000;1372,19453
 500,44; 1412,094;  100,878;    0,000;1311,21527
 500,60; 1700,969;  347,826;    0,000;1353,14320
 500,76; 1619,966;  216,927;    0,000;1403,03924
 500,92; 1140,174; -237,164;    0,000;1377,33791
 501,08; 1515,897;  138,887;    0,000;1377,01075
 501,24; 1361,309;   43,912;    0,000;1317,39716
 501,40; 1024,753; -161,209;    0,000;1185,96207
 501,56; 1305,737;   57,864;    0,000;1247,87320
 501,72; 1507,731;  317,958;    0,000;1189,77226
 501,88; 1430,110;   67,021;    0,000;1363,08868
 502,04; 1391,128;  126,736;    0,000;1264,39149
 502,20; 1248,122; -137,167;    0,000;1385,28980
 502,36; 1843,659;  407,911;    0,000;1435,74754
 502,53; 1301,038;  -35,134;    0,000;1336,17169
 502,69; 1402,136;  103,970;    0,000;1298,16622
 502,85; 1367,158;   50,909;    0,000;1316,24905
 503,01; 1401,033;  207,856;    0,000;1193,17697
 503,17; 1592,016;  187,926;    0,000;1404,08962
 503,33; 1711,911;  378,916;    0,000;1332,99490
 503,49; 1113,501; -258,106;    0,000;1371,60697
 503,65; 1420,798;   67,996;    0,000;1352,80226
 503,81; 1340,197;  -12,113;    0,000;1352,31075
 503,97; 1402,803; -109,102;    0,000;1511,90471
 504,13; 1524,258;   22,802;    0,000;1501,45602
 504,29; 1420,182;    9,962;    0,000;1410,22037
 504,45; 1346,299;   21,782;    0,000;1324,51696
 504,61; 1625,215;  104,925;    0,000;1520,29037
 504,77; 1578,654;   57,009;    0,000;1521,64509
 504,93; 1763,012;  365,919;    0,000;1397,09339
 505,09; 1541,050; -119,001;    0,000;1660,05038
 505,25; 1687,724;   71,944;    0,000;1615,77981
 505,41; 1393,796;  -52,116;    0,000;1445,91226
 505,57; 1252,951; -109,106;    0,000;1362,05660
 505,73; 1789,300;  424,892;    0,000;1364,40773
 505,89; 1446,867;   56,822;    0,000;1390,04546
 506,05; 1327,190; -162,129;    0,000;1489,31905
 506,22; 1202,439; -231,131;    0,000;1433,57018
 506,38; 1591,558;  -13,091;    0,000;1604,64905
 506,54; 1440,186;  -81,139;    0,000;1521,32433
 506,70; 1264,060; -224,086;    0,000;1488,14603
 506,86; 1574,851;  205,894;    0,000;1368,95660
 507,02; 1352,822;   61,723;    0,000;1291,09828
 507,18; 1678,182;  289,961;    0,000;1388,22113
 507,34; 1521,067;  150,928;    0,000;1370,13849
 507,50; 1700,352;  315,005;    0,000;1385,34736
 507,66; 1515,101;   86,894;    0,000;1428,20697
 507,82; 1404,873;  -80,058;    0,000;1484,93094
 507,98; 1918,771;  396,829;    0,000;1521,94169
 508,14; 1376,308;  -92,091;    0,000;1468,39867
 508,30; 1339,149; -105,002;    0,000;1444,15113
 508,46; 1520,972;   25,939;    0,000;1495,03245
 508,62; 1760,428;  247,845;    0,000;1512,58301
 508,78; 1458,803;  102,898;    0,000;1355,90471
 508,94; 1472,373;  -38,058;    0,000;1510,43094
 509,10; 1419,782;  -68,039;    0,000;1487,82113
 509,26; 1526,982;  224,962;    0,000;1302,02037
 509,42; 1299,672;   -5,168;    0,000;1304,84018
 509,58; 1630,617;  188,929;    0,000;1441,68811
 509,74; 1343,629;   93,847;    0,000;1249,78225
 509,90; 1334,860; -109,978;    0,000;1444,83830
 510,06; 1385,209;   54,912;    0,000;1330,29716
 510,22; 1267,099; -191,001;    0,000;1458,10075
 510,38; 1344,931;  -45,042;    0,000;1389,97226
 510,54; 1518,826;  172,840;    0,000;1345,98603
 510,70; 1561,670;  307,828;    0,000;1253,84244
 510,86; 1378,588;  -71,025;    0,000;1449,61358
 511,02; 1773,018;  202,930;    0,000;1570,08735
 511,18; 1289,363; -134,971;    0,000;1424,33453
 511,34; 1731,933;  428,963;    0,000;1302,97000
 511,50; 1572,153;  209,899;    0,000;1362,25434
 511,66; 1733,289;  356,868;    0,000;1376,42055
 511,82; 1575,052;  107,005;    0,000;1468,04736
 511,98; 1828,381;  396,959;    0,000;1431,42188
 512,14; 1368,732;  -16,039;    0,000;1384,77075
 512,30; 1754,699;  361,890;    0,000;1392,80924
 512,46; 1555,888;   95,973;    0,000;1459,91434
 512,62; 1416,231;   61,960;    0,000;1354,27151
 512,78; 1609,431;  169,958;    0,000;1439,47226
 512,94; 1609,264;  222,923;    0,000;1386,34151
 513,10; 1392,024;  -95,057;    0,000;1487,08056
 513,26; 1201,689; -171,132;    0,000;1372,82055
 513,42; 1862,278;  356,954;    0,000;1505,32490
 513,58; 1573,873;   47,833;    0,000;1526,03942
 513,74; 1684,126;   78,840;    0,000;1605,28603
 513,90; 4178,998;  502,888;    0,000;3676,10999
 514,06; 7164,905; -226,096;    0,000;7391,00169
 514,22; 5471,356;   78,904;    0,000;5392,45131
 514,38; 8819,612;  333,918;    0,000;8485,69415
 514,54;13255,194;  239,987;    0,000;13015,20679
 514,70; 6693,376;  260,948;    0,000;6432,42792
 514,86; 2831,471;  -38,063;    0,000;2869,53396
 515,02; 1722,744; -127,012;    0,000;1849,75641
 515,18; 1774,917;  -22,071;    0,000;1796,98811
 515,34; 3188,215;  317,817;    0,000;2870,39810
 515,50; 2861,630;  120,957;    0,000;2740,67302
 515,66; 1694,897; -155,007;    0,000;1849,90377
 515,82; 1541,987;   74,864;    0,000;1467,12282
 515,98; 1505,223;  140,834;    0,000;1364,38904
 516,14; 1559,316;  191,926;    0,000;1367,38962
 516,30; 1025,740; -284,129;    0,000;1309,86942
 516,46; 1447,765;  164,818;    0,000;1282,94772
 516,62; 1380,425;   78,838;    0,000;1301,58678
 516,78; 1491,358;   69,018;    0,000;1422,34057
 516,94; 1427,511;  -66,191;    0,000;1493,70263
 517,10; 1367,477;    6,843;    0,000;1360,63414
 517,26; 1590,110;  297,913;    0,000;1292,19641
 517,42; 1474,685;   23,968;    0,000;1450,71736
 517,58; 1266,465;  -94,075;    0,000;1360,53999
 517,74; 2013,782;  249,854;    0,000;1763,92810
 517,90; 3302,537;   -7,136;    0,000;3309,67320
 518,06; 2871,572;   35,939;    0,000;2835,63245
 518,22; 2003,594;  341,772;    0,000;1661,82225
 518,38; 1726,856;  257,904;    0,000;1468,95131
 518,54; 1481,540;  -43,022;    0,000;1524,56170
 518,70; 1970,958;  568,909;    0,000;1402,04905
 518,86; 1213,422; -164,169;    0,000;1377,59056
 519,02; 1605,877;  333,843;    0,000;1272,03414
 519,18; 1247,163;  -49,188;    0,000;1296,35074
 519,34; 1238,198;  -93,221;    0,000;1331,41847
 519,50; 1506,773;  183,835;    0,000;1322,93867
 519,66; 1397,421;   58,830;    0,000;1338,59131
 519,82; 1578,795;  282,881;    0,000;1295,91377
 519,98; 1475,162;   81,890;    0,000;1393,27152
 520,14; 1293,896; -117,110;    0,000;1411,00609
 520,30; 1632,431;  178,890;    0,000;1453,54066
 520,46; 1208,166; -233,110;    0,000;1441,27523
 520,62; 1521,300;   93,890;    0,000;1427,40980
 520,77; 1233,435; -109,110;    0,000;1342,54437
 520,93; 1445,870;   35,891;    0,000;1409,97893
 521,09; 1623,404;  108,891;    0,000;1514,51350
 521,25; 2189,639;  -70,109;    0,000;2259,74807
 521,41; 3398,274; 1296,891;    0,000;2101,38264
 521,57; 1780,308;  151,891;    0,000;1628,41721
 521,73; 1441,943;   83,891;    0,000;1358,05178
 521,89; 1406,478;  -83,109;    0,000;1489,58635
 522,05; 1231,712; -147,109;    0,000;1378,82092
 522,21; 1487,347;   64,891;    0,000;1422,45549
 522,37; 1487,782;   89,891;    0,000;1397,89006
 522,53; 1400,016;    0,892;    0,000;1399,12463
 522,69; 1655,551;  213,892;    0,000;1441,65919
 522,85; 1453,786;  180,892;    0,000;1272,89376
 523,01; 1204,020; -154,108;    0,000;1358,12833
 523,17; 1851,355;  581,892;    0,000;1269,46290
 523,33; 1194,090; -200,108;    0,000;1394,19747
 523,49; 1373,324;   11,892;    0,000;1361,43204
 523,65; 1363,659;   31,892;    0,000;1331,76661
 523,81; 1532,894;  109,892;    0,000;1423,00118
 523,97; 1562,028;  144,892;    0,000;1417,13575
 524,13; 1922,863;  454,893;    0,000;1467,97032
 524,29; 1923,298;  355,893;    0,000;1567,40488
 524,45; 1898,632;    8,893;    0,000;1889,73945
 524,60; 1748,267;    6,893;    0,000;1741,37403
 524,76; 2051,002;  542,893;    0,000;1508,10859
 524,92; 1218,036; -119,107;    0,000;1337,14316
 525,08; 1134,571; -125,107;    0,000;1259,67773
 525,24; 1453,206;  157,893;    0,000;1295,31230
 525,40; 1677,140;  333,893;    0,000;1343,24687
 525,56; 1400,175;   44,893;    0,000;1355,28144
 525,72; 1269,610;   10,894;    0,000;1258,71601
 525,88; 1773,144;  322,894;    0,000;1450,25057
 526,04; 1650,179;  301,894;    0,000;1348,28514
 526,20; 1555,714;  218,894;    0,000;1336,81972
 526,36; 1290,748;  -71,106;    0,000;1361,85428
 526,52; 1318,983;  -73,106;    0,000;1392,08885
 526,68; 1557,018;  213,894;    0,000;1343,12342
 526,84; 1399,352;   76,894;    0,000;1322,45799
 527,00; 1453,787;  115,894;    0,000;1337,89256
 527,16; 1559,022;   97,894;    0,000;1461,12713
 527,31; 1507,356;   91,894;    0,000;1415,46170
 527,47; 1570,291;  264,895;    0,000;1305,39627
 527,63; 1701,026;  236,895;    0,000;1464,13083
 527,79; 1529,260;   77,895;    0,000;1451,36541
 527,95; 1461,495;  -26,105;    0,000;1487,59997
 528,11; 1369,930; -100,105;    0,000;1470,03454
 528,27; 1287,064;   24,895;    0,000;1262,16911
 528,43; 1187,599; -212,105;    0,000;1399,70368
 528,59; 1366,134;   41,895;    0,000;1324,23825
 528,75; 1280,468;  -99,105;    0,000;1379,57282
 528,91; 1318,203;  -75,105;    0,000;1393,30739
 529,07; 1432,538;   93,896;    0,000;1338,64196
 529,23; 1504,772;  210,896;    0,000;1293,87652
 529,39; 1377,407;   40,896;    0,000;1336,51110
 529,54; 1353,242;   -7,104;    0,000;1360,34567
 529,70; 1070,976; -288,104;    0,000;1359,08023
 529,86; 1475,111;   87,896;    0,000;1387,21480
 530,02; 1367,546;  -95,104;    0,000;1462,64937
 530,18; 1344,480;  -85,104;    0,000;1429,58394
 530,34; 1300,415; -120,104;    0,000;1420,51851
 530,50; 1703,450;  324,896;    0,000;1378,55308
 530,66; 1121,884; -288,103;    0,000;1409,98765
 530,82; 1365,119;  -85,103;    0,000;1450,22221
 530,98; 1508,654;   12,897;    0,000;1495,75679
 531,14; 1688,388;  296,897;    0,000;1391,49136
 531,30; 1201,923; -154,103;    0,000;1356,02592
 531,45; 1460,658;   36,897;    0,000;1423,76050
 531,61; 1508,992;   -3,103;    0,000;1512,09506
 531,77; 1716,327;  336,897;    0,000;1379,42963
 531,93; 1261,862; -170,103;    0,000;1431,96420
 532,09; 1898,396;  471,897;    0,000;1426,49877
 532,25; 1379,031; -100,103;    0,000;1479,13334
 532,41; 1752,266;  270,898;    0,000;1481,36790
 532,57; 1572,300;   35,898;    0,000;1536,40248
 532,73; 1295,235; -116,102;    0,000;1411,33705
 532,89; 1270,370; -148,102;    0,000;1418,47161
 533,05; 1665,104;  160,898;    0,000;1504,20618
 533,21; 1487,639; -117,102;    0,000;1604,74075
 533,36; 1645,974;  238,898;    0,000;1407,07532
 533,52; 1552,808;  139,898;    0,000;1412,90989
 533,68; 1407,643;  -15,102;    0,000;1422,74446
 533,84; 1556,878;  139,898;    0,000;1416,97903
 534,00; 1437,512;  113,899;    0,000;1323,61360
 534,16; 1443,847;   -1,101;    0,000;1444,94817
 534,32; 1642,982;  144,899;    0,000;1498,08274
 534,48; 1974,116;  395,899;    0,000;1578,21731
 534,64; 1797,451;  302,899;    0,000;1494,55187
 534,80; 1396,186; -215,101;    0,000;1611,28644
 534,95; 1902,620;  369,899;    0,000;1532,72101
 535,11; 1702,455;  -52,101;    0,000;1754,55558
 535,27; 1845,890;  208,899;    0,000;1636,99015
 535,43; 1477,124; -133,101;    0,000;1610,22472
 535,59; 1658,959;  254,900;    0,000;1404,05929
 535,75; 1277,893; -147,100;    0,000;1424,99386
 535,91; 1563,228;  206,900;    0,000;1356,32843
 536,07; 1509,763;   51,900;    0,000;1457,86300
 536,23; 1638,297;  269,900;    0,000;1368,39756
 536,38; 1229,632; -289,100;    0,000;1518,73214
 536,54; 1643,167;   58,900;    0,000;1584,26670
 536,70; 1726,601;  122,900;    0,000;1603,70127
 536,86; 2002,836;  476,900;    0,000;1525,93585
 537,02; 1488,171; -159,100;    0,000;1647,27041
 537,18; 1347,905; -152,099;    0,000;1500,00498
 537,34; 1667,440;  106,901;    0,000;1560,53955
 537,50; 1707,475;  111,901;    0,000;1595,57412
 537,66; 1961,209;  373,901;    0,000;1587,30869
 537,81; 1759,744;  174,901;    0,000;1584,84325
 537,97; 1626,079;   69,901;    0,000;1556,17783
 538,13; 1394,313; -122,099;    0,000;1516,41239
 538,29; 1472,348;  -28,099;    0,000;1500,44696
 538,45; 1782,283;  319,901;    0,000;1462,38153
 538,61; 1474,417;  -53,099;    0,000;1527,51610
 538,77; 1527,752;  137,901;    0,000;1389,85067
 538,93; 2465,587;  992,902;    0,000;1472,68524
 539,09; 1344,421;  -67,098;    0,000;1411,51981
 539,24; 1323,756; -172,098;    0,000;1495,85438
 539,40; 1806,091;  409,902;    0,000;1396,18895
 539,56; 1462,625;   -1,098;    0,000;1463,72352
 539,72; 1424,260;  -91,098;    0,000;1515,35808
 539,88; 1612,895;   15,902;    0,000;1596,99266
 540,04; 1596,329;   32,902;    0,000;1563,42722
 540,20; 1688,864;   -3,098;    0,000;1691,96179
 540,36; 1896,599;  215,902;    0,000;1680,69636
 540,51; 1459,033; -154,097;    0,000;1613,13093
 540,67; 2066,968;  488,903;    0,000;1578,06550
 540,83; 1583,903;  -10,097;    0,000;1594,00007
 540,99; 1650,637;   90,903;    0,000;1559,73464
 541,15; 1742,472;   65,903;    0,000;1676,56920
 541,31; 2211,507;  137,903;    0,000;2073,60377
 541,47; 2016,641;  197,903;    0,000;1818,73835
 541,62; 1679,576;  121,903;    0,000;1557,67291
 541,78; 1579,511;   18,903;    0,000;1560,60748
 541,94; 1986,345;  567,903;    0,000;1418,44205
 542,10; 1452,080;   -3,096;    0,000;1455,17662
 542,26; 1488,815;  -32,096;    0,000;1520,91119
 542,42; 1664,949;  100,904;    0,000;1564,04576
 542,58; 1949,284;  375,904;    0,000;1573,38033
 542,73; 1721,119;  157,904;    0,000;1563,21489
 542,89; 2087,053;  376,904;    0,000;1710,14947
 543,05; 2066,588;  201,904;    0,000;1864,68404
 543,21; 1967,123;  -81,096;    0,000;2048,21860
 543,37; 1856,257; -158,096;    0,000;2014,35317
 543,53; 2196,192;  159,904;    0,000;2036,28774
 543,69; 1591,527; -160,095;    0,000;1751,62231
 543,85; 1961,661;  237,905;    0,000;1723,75688
 544,00; 1559,496; -133,095;    0,000;1692,59145
 544,16; 2092,531;  181,905;    0,000;1910,62602
 544,32; 2561,165; -170,095;    0,000;2731,26059
 544,48; 2739,100;  410,905;    0,000;2328,19515
 544,64; 1672,835;  -81,095;    0,000;1753,92973
 544,80; 1750,369;   77,905;    0,000;1672,46430
 544,95; 1979,804;  188,905;    0,000;1790,89886
 545,11; 1830,939;  145,905;    0,000;1685,03343
 545,27; 1541,073;  -19,095;    0,000;1560,16800
 545,43; 2065,008;  495,906;    0,000;1569,10257
 545,59; 2028,643;  362,906;    0,000;1665,73714
 545,75; 1930,077;  268,906;    0,000;1661,17171
 545,91; 1768,412;   52,906;    0,000;1715,50628
 546,06; 1721,647; -201,094;    0,000;1922,74085
 546,22; 1850,381;  -78,094;    0,000;1928,47542
 546,38; 2082,216;  161,906;    0,000;1920,30999
 546,54; 2005,251;  -62,094;    0,000;2067,34456
 546,70; 1974,985;  -89,094;    0,000;2064,07912
 546,86; 2094,420;   94,906;    0,000;1999,51369
 547,01; 2073,055;  119,907;    0,000;1953,14826
 547,17; 2002,689;   30,907;    0,000;1971,78283
 547,33; 1983,124;  141,907;    0,000;1841,21740
 547,49; 1943,859;   54,907;    0,000;1888,95197
 547,65; 1911,793;  151,907;    0,000;1759,88654
 547,81; 1794,128;  -28,093;    0,000;1822,22111
 547,96; 1725,463; -134,093;    0,000;1859,55568
 548,12; 2331,597;  520,907;    0,000;1810,69025
 548,28; 2064,532;  333,907;    0,000;1730,62482
 548,44; 1870,267;  125,907;    0,000;1744,35938
 548,60; 2880,901;  286,908;    0,000;2593,99395
 548,76; 4458,536; -129,092;    0,000;4587,62852
 548,91; 3091,871; -217,092;    0,000;3308,96309
 549,07; 2170,005;  140,908;    0,000;2029,09766
 549,23; 1909,340;  201,908;    0,000;1707,43223
 549,39; 1793,575;   72,908;    0,000;1720,66680
 549,55; 1700,409;   41,908;    0,000;1658,50137
 549,71; 2123,344;  -85,092;    0,000;2208,43594
 549,86; 2357,479;  100,908;    0,000;2256,57050
 550,02; 2017,113;   44,908;    0,000;1972,20507
 550,18; 2359,148;  298,909;    0,000;2060,23964
 550,34; 2175,983;   44,909;    0,000;2131,07421
 550,50; 1947,417; -184,091;    0,000;2131,50878
 550,66; 1928,152; -208,091;    0,000;2136,24335
 550,81; 2349,787;   82,909;    0,000;2266,87792
 550,97; 2429,721;   86,909;    0,000;2342,81249
 551,13; 2215,656; -119,091;    0,000;2334,74706
 551,29; 2406,391;    1,909;    0,000;2404,48163
 551,45; 2476,825;  130,909;    0,000;2345,91620
 551,60; 2691,860;  164,909;    0,000;2526,95076
 551,76; 2368,695; -200,091;    0,000;2568,78533
 551,92; 2547,729;  111,910;    0,000;2435,81990
 552,08; 2155,864;  -80,090;    0,000;2235,95447
 552,24; 2278,199;   56,910;    0,000;2221,28904
 552,40; 2229,833;  162,910;    0,000;2066,92361
 552,55; 2082,568;  -38,090;    0,000;2120,65818
 552,71; 2134,503;   38,910;    0,000;2095,59275
 552,87; 1858,237; -214,090;    0,000;2072,32732
 553,03; 2202,972;  144,910;    0,000;2058,06189
 553,19; 1932,607;  -19,090;    0,000;1951,69646
 553,34; 2192,341;  325,910;    0,000;1866,43102
 553,50; 2242,776;  306,911;    0,000;1935,86559
 553,66; 1955,711;  177,911;    0,000;1777,80016
 553,82; 1487,445; -212,089;    0,000;1699,53473
 553,98; 1924,480;  162,911;    0,000;1761,56930
 554,13; 1824,215;  -49,089;    0,000;1873,30387
 554,29; 1598,249; -148,089;    0,000;1746,33844
 554,45; 1597,184; -241,089;    0,000;1838,27301
 554,61; 1800,619;  -17,089;    0,000;1817,70758
 554,77; 2134,753;   96,911;    0,000;2037,84215
 554,92; 4270,488;  453,911;    0,000;3816,57671
 555,08; 5518,223; -304,088;    0,000;5822,31129
 555,24; 3939,157;  -20,088;    0,000;3959,24585
 555,40; 2795,592;  170,912;    0,000;2624,68042
 555,56; 2475,127;  102,912;    0,000;2372,21499
 555,71; 2668,461;  280,912;    0,000;2387,54956
 555,87; 2546,696;  212,912;    0,000;2333,78413
 556,03; 2701,131;  249,912;    0,000;2451,21870
 556,19; 2708,965;  203,912;    0,000;2505,05327
 556,35; 3740,700;  336,912;    0,000;3403,78784
 556,50; 3819,735;   52,912;    0,000;3766,82241
 556,66; 3498,069;  389,913;    0,000;3108,15698
 556,82; 3641,504;  709,913;    0,000;2931,59154
 556,98; 2861,639;    9,913;    0,000;2851,72611
 557,14; 3132,973;  220,913;    0,000;2912,06068
 557,29; 3210,808;  137,913;    0,000;3072,89525
 557,45; 3032,843;  -38,087;    0,000;3070,92982
 557,61; 2998,677; -135,087;    0,000;3133,76439
 557,77; 3303,412;  201,913;    0,000;3101,49896
 557,92; 3321,347;  -20,087;    0,000;3341,43353
 558,08; 3519,881;  261,913;    0,000;3257,96810
 558,24; 3237,016; -123,087;    0,000;3360,10267
 558,40; 3254,851;  -73,086;    0,000;3327,93723
 558,56; 3501,785;  230,914;    0,000;3270,87180
 558,71; 3334,020;  -17,086;    0,000;3351,10637
 558,87; 3536,755;    0,914;    0,000;3535,84094
 559,03; 3468,789;  -15,086;    0,000;3483,87551
 559,19; 3681,224;  132,914;    0,000;3548,31008
 559,35; 3505,459;   51,914;    0,000;3453,54465
 559,50; 3828,393;  360,914;    0,000;3467,47922
 559,66; 4200,128;  130,914;    0,000;4069,21379
 559,82; 7008,463;  219,914;    0,000;6788,54836
 559,98; 5801,697; -115,085;    0,000;5916,78293
 560,13; 4238,832;  217,915;    0,000;4020,91749
 560,29; 3721,767;  328,915;    0,000;3392,85206
 560,45; 3510,901;  302,915;    0,000;3207,98663
 560,61; 2861,336; -211,085;    0,000;3072,42120
 560,76; 3130,971;   87,915;    0,000;3043,05577
 560,92; 3341,505;  249,915;    0,000;3091,59034
 561,08; 3265,640;  159,915;    0,000;3105,72491
 561,24; 2813,575; -178,085;    0,000;2991,65948
 561,40; 2852,509; -162,085;    0,000;3014,59405
 561,55; 2681,044; -255,084;    0,000;2936,12862
 561,71; 2890,679;   62,916;    0,000;2827,76319
 561,87; 2725,613;  -19,084;    0,000;2744,69775
 562,03; 2796,248;  -55,084;    0,000;2851,33232
 562,18; 2840,983;  107,916;    0,000;2733,06689
 562,34; 2772,317;  -34,084;    0,000;2806,40146
 562,50; 2534,852; -224,084;    0,000;2758,93603
 562,66; 2651,687; -118,084;    0,000;2769,77060
 562,81; 2705,421;  -89,084;    0,000;2794,50517
 562,97; 2636,756; -192,084;    0,000;2828,83974
 563,13; 2916,091;  195,916;    0,000;2720,17431
 563,29; 2682,025;  -88,083;    0,000;2770,10888
 563,44; 2816,760;  105,917;    0,000;2710,84345
 563,60; 2645,395;  -39,083;    0,000;2684,47802
 563,76; 2860,429;  238,917;    0,000;2621,51258
 563,92; 2994,364;  169,917;    0,000;2824,44715
 564,07; 3381,299;  -23,083;    0,000;3404,38172
 564,23; 4425,833; -227,083;    0,000;4652,91629
 564,39; 4166,268;  182,917;    0,000;3983,35086
 564,55; 3312,003;  112,917;    0,000;3199,08543
 564,70; 2991,737;   59,917;    0,000;2931,82000
 564,86; 2777,372; -172,082;    0,000;2949,45457
 565,02; 3029,807;   -1,082;    0,000;3030,88914
 565,18; 2811,741; -167,082;    0,000;2978,82371
 565,33; 3192,776;  192,918;    0,000;2999,85827
 565,49; 2921,311;  -84,082;    0,000;3005,39284
 565,65; 3311,445;  188,918;    0,000;3122,52741
 565,81; 3123,880; -121,082;    0,000;3244,96198
 565,96; 3156,615;  -37,082;    0,000;3193,69655
 566,12; 3193,549; -138,082;    0,000;3331,63112
 566,28; 3652,784;  -61,082;    0,000;3713,86569
 566,44; 4050,419;  287,919;    0,000;3762,50026
 566,59; 4337,153;  183,919;    0,000;4153,23483
 566,75; 5162,988;  150,919;    0,000;5012,06939
 566,91; 6103,023;  175,919;    0,000;5927,10396
 567,07; 9261,157;  280,919;    0,000;8980,23854
 567,22;31863,292;  156,919;    0,000;31706,37310
 567,38;63884,427;  103,919;    0,000;63780,50767
 567,54;63958,461; -238,081;    0,000;64196,54224
 567,70;63884,496;  157,919;    0,000;63726,57681
 567,85;63958,531; -149,081;    0,000;64107,61138
 568,01;63884,565; -244,080;    0,000;64128,64595
 568,17;63958,600;  114,920;    0,000;63843,68052
 568,33;63884,635;   14,920;    0,000;63869,71509
 568,48;63958,669;  427,920;    0,000;63530,74966
 568,64;63884,704;   80,920;    0,000;63803,78423
 568,80;63958,739;  202,920;    0,000;63755,81879
 568,95;63884,773;  142,920;    0,000;63741,85336
 569,11;62748,508;  101,920;    0,000;62646,58793
 569,27;63884,843;  -94,080;    0,000;63978,92250
 569,43; 8609,077;  -47,080;    0,000;8656,15707
 569,58; 8437,712;  -41,080;    0,000;8478,79164
 569,74; 6802,347;   33,921;    0,000;6768,42621
 569,90; 7684,281;  246,921;    0,000;7437,36078
 570,06; 6876,716; -100,079;    0,000;6976,79535
 570,21; 6428,951;   11,921;    0,000;6417,02991
 570,37; 6530,985;  229,921;    0,000;6301,06448
 570,53; 7040,020;  -27,079;    0,000;7067,09905
 570,68; 6595,955; -224,079;    0,000;6820,03362
 570,84; 6138,589;   -8,079;    0,000;6146,66819
 571,00; 6312,824;  164,921;    0,000;6147,90276
 571,16; 6975,659;   22,921;    0,000;6952,73733
 571,31; 7009,193;  208,922;    0,000;6800,27190
 571,47; 6093,328;  -90,078;    0,000;6183,40647
 571,63; 6339,663;  318,922;    0,000;6020,74104
 571,78; 6839,797;   75,922;    0,000;6763,87561
 571,94; 7394,732;  421,922;    0,000;6972,81018
 572,10; 6609,767;   -6,078;    0,000;6615,84474
 572,26; 6436,601;  357,922;    0,000;6078,67931
 572,41; 6572,036;  -45,078;    0,000;6617,11388
 572,57; 7356,871;  412,922;    0,000;6943,94845
 572,73; 7174,705;  -67,078;    0,000;7241,78302
 572,88; 7557,640;  779,923;    0,000;6777,71759
 573,04; 6805,875; -327,077;    0,000;7132,95216
 573,20; 7626,909;  -62,077;    0,000;7688,98673
 573,36; 7824,044; -110,077;    0,000;7934,12130
 573,51; 8115,679;  132,923;    0,000;7982,75587
 573,67; 7669,113;  133,923;    0,000;7535,19044
 573,83; 7092,448;  146,923;    0,000;6945,52500
 573,98; 7240,283;  -83,077;    0,000;7323,35957
 574,14; 8425,817;  265,923;    0,000;8159,89414
 574,30; 8148,652; -230,077;    0,000;8378,72871
 574,46; 7948,487;  -38,076;    0,000;7986,56328
 574,61; 7199,021; -141,076;    0,000;7340,09785
 574,77; 7508,956;   94,924;    0,000;7414,03242
 574,93; 7931,091;  214,924;    0,000;7716,16699
 575,08; 8564,425;  121,924;    0,000;8442,50156
 575,24; 8702,860;    4,924;    0,000;8697,93613
 575,40; 9056,695;  529,924;    0,000;8526,77070
 575,55; 8231,029;   20,924;    0,000;8210,10526
 575,71; 8229,964;  -12,076;    0,000;8242,03983
 575,87; 8515,499;  116,924;    0,000;8398,57440
 576,03; 8843,533;  184,924;    0,000;8658,60897
 576,18; 8922,168;   -5,075;    0,000;8927,24354
 576,34; 9758,903;  344,925;    0,000;9413,97811
 576,50; 9559,737;   75,925;    0,000;9483,81268
 576,65; 9652,772;  268,925;    0,000;9383,84725
 576,81; 9647,207;   -2,075;    0,000;9649,28182
 576,97;10293,041;  273,925;    0,000;10019,11639
 577,12; 9700,476;  -60,075;    0,000;9760,55095
 577,28; 9981,911;   54,925;    0,000;9926,98552
 577,44;10368,745;  -20,075;    0,000;10388,82009
 577,59;10631,280;  117,925;    0,000;10513,35466
 577,75;10779,815;  -23,074;    0,000;10802,88923
 577,91;11737,849;  292,926;    0,000;11444,92380
 578,06;12208,484;  148,926;    0,000;12059,55837
 578,22;12613,819;   90,926;    0,000;12522,89294
 578,38;12694,753;  -71,074;    0,000;12765,82751
 578,53;12479,988;   74,926;    0,000;12405,06208
 578,69;11999,323; -174,074;    0,000;12173,39664
 578,85;10890,057; -297,074;    0,000;11187,13122
 579,01;11142,092; -145,074;    0,000;11287,16578
 579,16;11796,227;  162,926;    0,000;11633,30035
 579,32;13032,761;   98,927;    0,000;12933,83492
 579,48;14219,896;  257,927;    0,000;13961,96949
 579,63;15694,031;  206,927;    0,000;15487,10406
 579,79;16893,865;  277,927;    0,000;16615,93863
 579,95;18127,100;  428,927;    0,000;17698,17320
 580,10;19088,935;   11,927;    0,000;19077,00777
 580,26;20282,469;  118,927;    0,000;20163,54234
 580,42;19919,904;  139,927;    0,000;19779,97691
 580,57;18765,339;  -67,073;    0,000;18832,41147
 580,73;18142,373;  210,927;    0,000;17931,44604
 580,89;17476,408;  157,928;    0,000;17318,48061
 581,04;16417,343;  127,928;    0,000;16289,41518
 581,20;16197,677;  269,928;    0,000;15927,74975
 581,36;15656,112;   -5,072;    0,000;15661,18432
 581,51;15423,247;  222,928;    0,000;15200,31889
 581,67;15843,081;   99,928;    0,000;15743,15346
 581,83;15691,416; -116,072;    0,000;15807,48803
 581,98;16548,051;  303,928;    0,000;16244,12260
 582,14;16022,485;   28,928;    0,000;15993,55716
 582,30;17319,320;  303,928;    0,000;17015,39173
 582,45;16778,355; -184,072;    0,000;16962,42630
 582,61;16832,989;   62,929;    0,000;16770,06087
 582,77;16438,624; -224,071;    0,000;16662,69544
 582,92;17288,359;  -53,071;    0,000;17341,43001
 583,08;18246,993;  -28,071;    0,000;18275,06458
 583,24;18653,328;  134,929;    0,000;18518,39915
 583,39;19300,063; -149,071;    0,000;19449,13372
 583,55;22065,197;  456,929;    0,000;21608,26829
 583,71;23455,132;  204,929;    0,000;23250,20286
 583,86;24452,967;  278,929;    0,000;24174,03742
 584,02;26091,801;  -35,071;    0,000;26126,87199
 584,17;28773,136;  129,930;    0,000;28643,20656
 584,33;31042,171;  285,930;    0,000;30756,24113
 584,49;33623,905;  242,930;    0,000;33380,97570
 584,64;34964,240;   28,930;    0,000;34935,31027
 584,80;37894,875;   30,930;    0,000;37863,94484
 584,96;42029,509; -141,070;    0,000;42170,57941
 585,11;48497,244;  195,930;    0,000;48301,31398
 585,27;51788,379;  190,930;    0,000;51597,44855
 585,43;56031,713;  364,930;    0,000;55666,78312
 585,58;59518,348;   32,930;    0,000;59485,41768
 585,74;63962,483;  345,931;    0,000;63616,55225
 585,90;63888,517;  227,931;    0,000;63660,58682
 586,05;63962,552;   -0,069;    0,000;63962,62139
 586,21;63888,587;  -96,069;    0,000;63984,65596
 586,37;63962,621;  -35,069;    0,000;63997,69053
 586,52;63888,656;  346,931;    0,000;63541,72510
 586,68;63962,691;  308,931;    0,000;63653,75967
 586,83;63888,725;  -80,069;    0,000;63968,79424
 586,99;63962,760;  322,931;    0,000;63639,82880
 587,15;63888,795; -178,069;    0,000;64066,86338
 587,30;63962,829;    1,932;    0,000;63960,89795
 587,46;63888,864; -112,068;    0,000;64000,93251
 587,62;63962,899;   88,932;    0,000;63873,96708
 587,77;63888,933;  332,932;    0,000;63556,00165
 587,93;63962,968;  151,932;    0,000;63811,03622
 588,09;63889,003;   -9,068;    0,000;63898,07079
 588,24;63963,037;  114,932;    0,000;63848,10536
 588,40;63889,072; -272,068;    0,000;64161,13993
 588,55;63963,107;   94,932;    0,000;63868,17450
 588,71;63889,141;  115,932;    0,000;63773,20907
 588,87;63963,176;   35,932;    0,000;63927,24364
 589,02;63889,211;  364,933;    0,000;63524,27820
 589,18;63963,245;  202,933;    0,000;63760,31277
 589,34;63889,280;  380,933;    0,000;63508,34734
 589,49;63963,315;   46,933;    0,000;63916,38191
 589,65;63889,349;  337,933;    0,000;63551,41648
 589,80;63963,384;  374,933;    0,000;63588,45105
 589,96;63889,419;  290,933;    0,000;63598,48562
 590,12;63963,453;  210,933;    0,000;63752,52019
 590,27;63889,488;  -11,067;    0,000;63900,55476
 590,43;63963,523;  177,933;    0,000;63785,58932
 590,59;63889,557;  266,934;    0,000;63622,62389
 590,74;63963,592;   31,934;    0,000;63931,65847
 590,90;63889,627;  470,934;    0,000;63418,69303
 591,05;63963,661;  156,934;    0,000;63806,72760
 591,21;63889,696;   14,934;    0,000;63874,76217
 591,37;63963,731;   73,934;    0,000;63889,79674
 591,52;63889,765;  101,934;    0,000;63787,83131
 591,68;63963,800; -204,066;    0,000;64167,86588
 591,83;63889,835;  -16,066;    0,000;63905,90045
 591,99;63963,869;  181,934;    0,000;63781,93502
 592,15;63889,904;   46,935;    0,000;63842,96958
 592,30;63963,939;  249,935;    0,000;63714,00416
 592,46;63889,973;  129,935;    0,000;63760,03872
 592,61;63964,008; -131,065;    0,000;64095,07329
 592,77;63890,043;  228,935;    0,000;63661,10786
 592,93;63964,077;   15,935;    0,000;63948,14243
 593,08;63890,112;  160,935;    0,000;63729,17700
 593,24;63964,147;  -88,065;    0,000;64052,21157
 593,40;63890,181;  107,935;    0,000;63782,24614
 593,55;63964,216;  374,935;    0,000;63589,28071
 593,71;63890,251;    9,935;    0,000;63880,31528
 593,86;63964,285;  -13,064;    0,000;63977,34984
 594,02;63890,320;  -32,064;    0,000;63922,38441
 594,18;63964,355;  474,936;    0,000;63489,41898
 594,33;63890,389;  224,936;    0,000;63665,45355
 594,49;63964,424;   59,936;    0,000;63904,48812
 594,64;63890,459;   86,936;    0,000;63803,52269
 594,80;63964,493;  366,936;    0,000;63597,55726
 594,95;63890,528; -149,064;    0,000;64039,59183
 595,11;63964,563;  -15,064;    0,000;63979,62640
 595,27;63890,597;  129,936;    0,000;63760,66097
 595,42;63964,632;  133,937;    0,000;63830,69554
 595,58;63890,667;  102,937;    0,000;63787,73011
 595,73;63964,701;   15,937;    0,000;63948,76467
 595,89;63890,736;  139,937;    0,000;63750,79924
 596,05;63964,771;  255,937;    0,000;63708,83381
 596,20;63890,805;    2,937;    0,000;63887,86838
 596,36;63964,840;   91,937;    0,000;63872,90295
 596,51;63890,875; -100,063;    0,000;63990,93752
 596,67;63964,909;   78,937;    0,000;63885,97209
 596,83;63890,944;  199,937;    0,000;63691,00666
 596,98;63964,979;  523,938;    0,000;63441,04123
 597,14;63891,013;  125,938;    0,000;63765,07580
 597,29;63965,048;  -95,062;    0,000;64060,11036
 597,45;63891,083;  106,938;    0,000;63784,14493
 597,60;63965,117;  266,938;    0,000;63698,17950
 597,76;63891,152; -230,062;    0,000;64121,21407
 597,92;63965,187;  325,938;    0,000;63639,24864
 598,07;63891,221; -160,062;    0,000;64051,28321
 598,23;63965,256;  223,938;    0,000;63741,31778
 598,38;63891,291;  102,938;    0,000;63788,35235
 598,54;63965,325;  119,939;    0,000;63845,38692
 598,70;63891,360;  -91,061;    0,000;63982,42149
 598,85;63965,395;  222,939;    0,000;63742,45605
 599,01;63891,429;   93,939;    0,000;63797,49063
 599,16;63965,464;  171,939;    0,000;63793,52519
 599,32;63891,499;  137,939;    0,000;63753,55976
 599,47;63965,533;   68,939;    0,000;63896,59433
 599,63;63891,568; -185,061;    0,000;64076,62890
 599,79;63965,603; -118,061;    0,000;64083,66347
 599,94;63891,637;  -20,061;    0,000;63911,69804
 600,10;63965,672;  -18,061;    0,000;63983,73261
 600,25;63891,707;  227,940;    0,000;63663,76718
 600,41;63965,741;   33,940;    0,000;63931,80174
 600,56;63891,776; -219,060;    0,000;64110,83632
 600,72;63965,811;  -65,060;    0,000;64030,87088
 600,88;63891,845;  -25,060;    0,000;63916,90545
 601,03;63965,880;  274,940;    0,000;63690,94002
 601,19;63891,915;  -53,060;    0,000;63944,97459
 601,34;63965,949;  306,940;    0,000;63659,00916
 601,50;63891,984; -133,060;    0,000;64025,04373
 601,65;63966,019;  119,940;    0,000;63846,07830
 601,81;63892,053;  -67,059;    0,000;63959,11287
 601,96;63966,088;  137,941;    0,000;63828,14744
 602,12;63892,123;  -23,059;    0,000;63915,18201
 602,28;63966,157;   81,941;    0,000;63884,21657
 602,43;63892,192;    9,941;    0,000;63882,25114
 602,59;63966,227;  -25,059;    0,000;63991,28571
 602,74;63892,261;  196,941;    0,000;63695,32028
 602,90;63966,296;  292,941;    0,000;63673,35485
 603,05;63892,331;  210,941;    0,000;63681,38942
 603,21;63966,365;  109,941;    0,000;63856,42399
 603,36;63892,400;    8,942;    0,000;63883,45856
 603,52;63966,435;  122,942;    0,000;63843,49313
 603,68;63892,469;  169,942;    0,000;63722,52770
 603,83;63966,504;  -52,058;    0,000;64018,56227
 603,99;63892,539;   90,942;    0,000;63801,59683
 604,14;63966,573;  212,942;    0,000;63753,63140
 604,30;63892,608;  -87,058;    0,000;63979,66597
 604,45;63966,643;  167,942;    0,000;63798,70054
 604,61;63892,677; -168,058;    0,000;64060,73511
 604,76;63966,712;  349,942;    0,000;63616,76968
 604,92;63892,747;  -60,057;    0,000;63952,80425
 605,07;63966,781; -187,057;    0,000;64153,83882
 605,23;63892,816;  133,943;    0,000;63758,87339
 605,39;60319,051;   54,943;    0,000;60264,10796
 605,54;63892,885;   56,943;    0,000;63835,94253
 605,70; 4851,420; -155,057;    0,000;5006,47709
 605,85;43986,255;  211,943;    0,000;43774,31166
 606,01; 4232,789;  299,943;    0,000;3932,84623
 606,16; 4461,624;    6,943;    0,000;4454,68080
 606,32; 3428,459; -111,057;    0,000;3539,51537
 606,47; 3982,893;  203,943;    0,000;3778,94994
 606,63; 3247,228;   52,944;    0,000;3194,28451
 606,78; 3791,463;  235,944;    0,000;3555,51908
 606,94; 3334,697;  265,944;    0,000;3068,75365
 607,09; 3611,532;  355,944;    0,000;3255,58822
 607,25; 3078,967;   14,944;    0,000;3064,02279
 607,40; 3157,401;   31,944;    0,000;3125,45735
 607,56; 2922,736;  160,944;    0,000;2761,79192
 607,72; 2922,471;  -35,056;    0,000;2957,52649
 607,87; 2643,305;  -43,056;    0,000;2686,36106
 608,03; 3007,940;  224,944;    0,000;2782,99563
 608,18; 3048,975;  188,945;    0,000;2860,03020
 608,34; 3144,009;  223,945;    0,000;2920,06477
 608,49; 2670,144;  -37,055;    0,000;2707,19934
 608,65; 2593,879;  -44,055;    0,000;2637,93390
 608,80; 2724,213;  304,945;    0,000;2419,26848
 608,96; 3374,248;  571,945;    0,000;2802,30305
 609,11; 3316,283;  312,945;    0,000;3003,33761
 609,27; 2824,217;  -97,055;    0,000;2921,27218
 609,42; 2487,752; -117,055;    0,000;2604,80675
 609,58; 3080,087;  361,945;    0,000;2718,14132
 609,73; 3232,321;   -1,054;    0,000;3233,37589
 609,89; 2919,456; -188,054;    0,000;3107,51046
 610,04; 2672,191;  127,946;    0,000;2544,24503
 610,20; 2718,825;  256,946;    0,000;2461,87960
 610,35; 2656,860;  367,946;    0,000;2288,91417
 610,51; 2319,395;  -11,054;    0,000;2330,44873
 610,66; 2289,429;   96,946;    0,000;2192,48330
 610,82; 2543,664;  393,946;    0,000;2149,71787
 610,97; 2474,999;  310,946;    0,000;2164,05244
 611,13; 2431,533;  233,946;    0,000;2197,58701
 611,28; 2093,568;  -37,053;    0,000;2130,62158
 611,44; 2133,703;  -40,053;    0,000;2173,75615
 611,59; 2090,637;  -10,053;    0,000;2100,69072
 611,75; 2435,472;  204,947;    0,000;2230,52529
 611,90; 2693,007;  427,947;    0,000;2265,05986
 612,06; 2130,541; -167,053;    0,000;2297,59443
 612,21; 2076,876;   30,947;    0,000;2045,92899
 612,37; 2276,411;  242,947;    0,000;2033,46357
 612,52; 2287,945;  302,947;    0,000;1984,99813
 612,68; 2082,180;   85,947;    0,000;1996,23270
 612,83; 2006,515;   24,947;    0,000;1981,56727
 612,99; 1929,049;  -69,052;    0,000;1998,10184
 613,14; 2025,184;   17,948;    0,000;2007,23641
 613,30; 1968,619; -137,052;    0,000;2105,67098
 613,45; 2489,253;  395,948;    0,000;2093,30555
 613,61; 2275,088;  -58,052;    0,000;2333,14012
 613,76; 3095,623;  273,948;    0,000;2821,67469
 613,92; 2876,057;  172,948;    0,000;2703,10925
 614,07; 2731,292;  233,948;    0,000;2497,34382
 614,23; 2772,527; -158,052;    0,000;2930,57839
 614,38; 6325,161;  -32,052;    0,000;6357,21296
 614,54;26949,696;  -57,051;    0,000;27006,74753
 614,69;35126,331;  210,949;    0,000;34915,38210
 614,85;19065,165;  -89,051;    0,000;19154,21667
 615,00;11868,000; -250,051;    0,000;12118,05124
 615,16;42170,235;  -98,051;    0,000;42268,28581
 615,31;63234,869;  -46,051;    0,000;63280,92038
 615,47;39880,704;  142,949;    0,000;39737,75495
 615,62;15381,039;  467,949;    0,000;14913,08951
 615,78; 5629,073;  -73,051;    0,000;5702,12408
 615,93; 3275,308; -176,051;    0,000;3451,35865
 616,09; 2758,243;   52,950;    0,000;2705,29322
 616,24; 2982,877;    7,950;    0,000;2974,92779
 616,40; 2907,712;  -16,050;    0,000;2923,76236
 616,55; 3011,847;   69,950;    0,000;2941,89693
 616,71; 2384,781;   89,950;    0,000;2294,83150
 616,86; 2186,516;  224,950;    0,000;1961,56607
 617,02; 1717,451;  -20,050;    0,000;1737,50064
 617,17; 2090,185;  410,950;    0,000;1679,23521
 617,33; 1799,020;  104,950;    0,000;1694,06977
 617,48; 1953,055;  297,950;    0,000;1655,10434
 617,64; 1656,389;   67,951;    0,000;1588,43891
 617,79; 1944,624;  394,951;    0,000;1549,67348
 617,95; 2609,759; 1028,951;    0,000;1580,80805
 618,10; 1687,393;  122,951;    0,000;1564,44262
 618,25; 1602,028;  134,951;    0,000;1467,07719
 618,41; 1671,563;  178,951;    0,000;1492,61176
 618,56; 1551,797;  136,951;    0,000;1414,84633
 618,72; 1882,232;  342,951;    0,000;1539,28090
 618,87; 1640,267;  136,951;    0,000;1503,31546
 619,03; 1543,001;   99,951;    0,000;1443,05004
 619,18; 1398,236;  -67,049;    0,000;1465,28460
 619,34; 1755,271;  332,952;    0,000;1422,31917
 619,49; 1548,105;   96,952;    0,000;1451,15374
 619,65; 1532,740;   72,952;    0,000;1459,78831
 619,80; 1345,975;  -36,048;    0,000;1382,02288
 619,96; 1827,609;  472,952;    0,000;1354,65745
 620,11; 1584,344;  217,952;    0,000;1366,39202
 620,27; 2126,479;  530,952;    0,000;1595,52659
 620,42; 2378,913;  217,952;    0,000;2160,96115
 620,57; 2246,748;  190,952;    0,000;2055,79573
 620,73; 1739,683; -224,048;    0,000;1963,73029
 620,88; 2235,417;  415,953;    0,000;1819,46486
 621,04; 1520,452;   10,953;    0,000;1509,49943
 621,19; 1720,087;  259,953;    0,000;1460,13400
 621,35; 1637,421;  222,953;    0,000;1414,46857
 621,50; 1468,756;  144,953;    0,000;1323,80314
 621,66; 1434,391;  219,953;    0,000;1214,43771
 621,81; 1532,425;   39,953;    0,000;1492,47228
 621,97; 1240,260;  -50,047;    0,000;1290,30685
 622,12; 1504,095;  217,953;    0,000;1286,14142
 622,27; 1448,229;  113,953;    0,000;1334,27599
 622,43; 1390,364;   10,954;    0,000;1379,41055
 622,58; 1381,999;   81,954;    0,000;1300,04512
 622,74; 1809,233;  469,954;    0,000;1339,27969
 622,89; 1176,168; -111,046;    0,000;1287,21426
 623,05; 1400,003;  217,954;    0,000;1182,04883
 623,20; 1578,837;  296,954;    0,000;1281,88340
 623,36; 1562,472;  309,954;    0,000;1252,51797
 623,51; 1515,807;  218,954;    0,000;1296,85254
 623,66; 1679,741;  332,954;    0,000;1346,78711
 623,82; 1412,976;   78,954;    0,000;1334,02167
 623,97; 1458,311;   94,954;    0,000;1363,35624
 624,13; 1145,545; -173,045;    0,000;1318,59081
 624,28; 1492,680;  135,955;    0,000;1356,72538
 624,44; 1226,915;  -64,045;    0,000;1290,95995
 624,59; 1348,049;   73,955;    0,000;1274,09452
 624,75; 1447,684;  182,955;    0,000;1264,72909
 624,90; 1384,819;   71,955;    0,000;1312,86366
 625,05; 1553,853;  259,955;    0,000;1293,89823
 625,21; 1890,988;  656,955;    0,000;1234,03280
 625,36; 1626,923;  434,955;    0,000;1191,96737
 625,52; 1071,357; -180,045;    0,000;1251,40193
 625,67; 1387,092;  149,956;    0,000;1237,13650
 625,83; 1413,227;  146,956;    0,000;1266,27107
 625,98; 1379,661;  103,956;    0,000;1275,70564
 626,13; 1246,996;  101,956;    0,000;1145,04021
 626,29; 1067,431;  -94,044;    0,000;1161,47478
 626,44; 1235,665;   -6,044;    0,000;1241,70935
 626,60; 1454,900;  294,956;    0,000;1159,94392
 626,75; 1591,635;  464,956;    0,000;1126,67849
 626,91; 1065,569; -267,044;    0,000;1332,61306
 627,06; 1497,704;  305,956;    0,000;1191,74763
 627,21; 1295,739;   96,957;    0,000;1198,78219
 627,37; 1457,773;  333,957;    0,000;1123,81676
 627,52; 1041,108;  -94,043;    0,000;1135,15133
 627,68; 1442,843;  252,957;    0,000;1189,88590
 627,83; 1200,777;   66,957;    0,000;1133,82047
 627,98; 1267,712;  106,957;    0,000;1160,75504
 628,14; 1222,247;   78,957;    0,000;1143,28961
 628,29; 1404,581;  121,957;    0,000;1282,62418
 628,45;  952,116; -350,043;    0,000;1302,15875
 628,60; 1431,651;  243,957;    0,000;1187,69332
 628,76; 1644,685;  174,958;    0,000;1469,72789
 628,91; 2075,720;  201,958;    0,000;1873,76245
 629,06; 1689,155;  110,958;    0,000;1578,19702
 629,22; 1333,389;   49,958;    0,000;1283,43159
 629,37; 1087,624;  -56,042;    0,000;1143,66616
 629,53; 1228,259;  181,958;    0,000;1046,30073
 629,68; 1433,393;  224,958;    0,000;1208,43530
 629,83; 1707,428;  143,958;    0,000;1563,46987
 629,99; 1972,163; -147,042;    0,000;2119,20444
 630,14; 1941,897;  128,958;    0,000;1812,93901
 630,30; 1257,232;  -81,042;    0,000;1338,27358
 630,45; 1586,367;  474,959;    0,000;1111,40815
 630,60; 1265,101;  183,959;    0,000;1081,14271
 630,76; 1001,236;  -15,041;    0,000;1016,27728
 630,91;  937,471; -200,041;    0,000;1137,51185
 631,07; 1142,205;    1,959;    0,000;1140,24642
 631,22; 1121,140;   68,959;    0,000;1052,18099
 631,37; 1308,375;  302,959;    0,000;1005,41556
 631,53; 1205,809;   77,959;    0,000;1127,85013
 631,68; 1101,044;  138,959;    0,000;962,08470
 631,84; 1473,479;  496,959;    0,000;976,51927
 631,99;  804,313; -147,040;    0,000;951,35384
 632,14; 1438,248;  380,960;    0,000;1057,28841
 632,30; 1296,783;  273,960;    0,000;1022,82297
 632,45;  926,117;  -85,040;    0,000;1011,15754
 632,61; 1393,152;  266,960;    0,000;1126,19211
 632,76;  955,987;  -22,040;    0,000;978,02668
 632,91; 1304,221;  314,960;    0,000;989,26125
 633,07;  974,956; -101,040;    0,000;1075,99582
 633,22; 1027,991;   21,960;    0,000;1006,03039
 633,38;  880,325; -117,040;    0,000;997,36496
 633,53;  988,560;    5,961;    0,000;982,59953
 633,68;  851,695; -185,039;    0,000;1036,73410
 633,84; 1329,129;  383,961;    0,000;945,16866
 633,99; 1281,364;  188,961;    0,000;1092,40323
 634,14;  953,599;  -28,039;    0,000;981,63780
 634,30; 1229,133;  230,961;    0,000;998,17237
 634,45; 1296,968;  351,961;    0,000;945,00694
 634,61; 1252,803;  231,961;    0,000;1020,84151
 634,76; 1070,037;   96,961;    0,000;973,07608
 634,91;  953,572;  -56,039;    0,000;1009,61065
 635,07;  832,107; -112,038;    0,000;944,14522
 635,22;  855,941;  -90,038;    0,000;945,97979
 635,38; 1078,576;  116,962;    0,000;961,61436
 635,53; 1171,511;  173,962;    0,000;997,54892
 635,68; 1421,845;  396,962;    0,000;1024,88349
 635,84; 1336,580;  197,962;    0,000;1138,61806
 635,99; 1313,715;  223,962;    0,000;1089,75263
 636,14; 1381,249;   27,962;    0,000;1353,28720
 636,30; 1197,984;  -10,038;    0,000;1208,02177
 636,45;  963,719; -140,038;    0,000;1103,75634
 636,61; 1150,153;  205,962;    0,000;944,19091
 636,76;  951,688;    3,963;    0,000;947,72548
 636,91; 1042,623;  110,963;    0,000;931,66005
 637,07;  925,157;  -47,037;    0,000;972,19462
 637,22; 1066,092;  196,963;    0,000;869,12918
 637,37;  764,927; -137,037;    0,000;901,96375
 637,53; 1433,461;   72,963;    0,000;1360,49832
 637,68; 2242,396;   54,963;    0,000;2187,43289
 637,83; 1931,831;  114,963;    0,000;1816,86746
 637,99; 1409,865;  139,963;    0,000;1269,90203
 638,14; 1078,200;   15,963;    0,000;1062,23660
 638,30;  657,935; -304,036;    0,000;961,97117
 638,45;  943,869;  141,964;    0,000;801,90574
 638,60; 1228,704;  326,964;    0,000;901,74031
 638,76;  793,039; -113,036;    0,000;906,07488
 638,91;  950,873;   -6,036;    0,000;956,90944
 639,06;  622,808; -207,036;    0,000;829,84401
 639,22;  864,143;  -73,036;    0,000;937,17858
 639,37; 1016,177;   59,964;    0,000;956,21315
 639,52; 1233,412;  332,964;    0,000;900,44772
 639,68; 1010,847;  241,964;    0,000;768,88229
 639,83; 1356,681;  467,965;    0,000;888,71686
 639,98; 1031,016;   91,965;    0,000;939,05143
 640,14; 1577,451;  725,965;    0,000;851,48600
 640,29;  870,685;  -87,035;    0,000;957,72057
 640,44; 1301,820;  214,965;    0,000;1086,85514
 640,60; 2211,655;  582,965;    0,000;1628,68970
 640,75; 5279,789;  -96,035;    0,000;5375,82427
 640,91; 7039,024;   41,965;    0,000;6997,05884
 641,06; 4454,059;  169,965;    0,000;4284,09341
 641,21; 2101,493;    1,965;    0,000;2099,52798
 641,37; 1287,428;   48,966;    0,000;1238,46255
 641,52;  985,863;   16,966;    0,000;968,89712
 641,67;  630,197; -333,034;    0,000;963,23169
 641,83;  958,332;   95,966;    0,000;862,36626
 641,98; 1662,867;  798,966;    0,000;863,90082
 642,13; 1284,901;  380,966;    0,000;903,93540
 642,29;  891,236;  -52,034;    0,000;943,26996
 642,44; 1119,171;  195,966;    0,000;923,20453
 642,59;  938,605;   95,966;    0,000;842,63910
 642,75; 1205,040;  303,966;    0,000;901,07367
 642,90;  790,375;  -72,034;    0,000;862,40824
 643,05;  729,709; -109,033;    0,000;838,74281
 643,21;  989,944;   87,967;    0,000;901,97738
 643,36;  900,879;   70,967;    0,000;829,91195
 643,51; 1048,713;  259,967;    0,000;788,74652
 643,67;  967,348;   78,967;    0,000;888,38109
 643,82;  815,983;  -33,033;    0,000;849,01566
 643,97;  836,217;   30,967;    0,000;805,25022
 644,13;  947,152;  148,967;    0,000;798,18479
 644,28;  757,887;  -57,033;    0,000;814,91936
 644,43;  863,921;  -35,033;    0,000;898,95393
 644,59;  642,656; -112,032;    0,000;754,68850
 644,74;  759,791;  -21,032;    0,000;780,82307
 644,89;  911,425;  152,968;    0,000;758,45764
 645,05;  844,560;  -47,032;    0,000;891,59221
 645,20; 1056,595;  258,968;    0,000;797,62678
 645,35;  789,529;  -18,032;    0,000;807,56135
 645,51; 1034,864;  155,968;    0,000;878,89591
 645,66;  654,899; -236,032;    0,000;890,93048
 645,81; 1326,533;  400,968;    0,000;925,56505
 645,96; 1274,168;  256,968;    0,000;1017,19962
 646,12; 1319,703;  481,969;    0,000;837,73419
 646,27;  717,337; -164,031;    0,000;881,36876
 646,42;  861,472;  152,969;    0,000;708,50333
 646,58;  919,707;  115,969;    0,000;803,73790
 646,73;  944,741;  140,969;    0,000;803,77247
 646,88;  909,276;  122,969;    0,000;786,30704
 647,04;  819,511;   40,969;    0,000;778,54160
 647,19;  993,845;  163,969;    0,000;829,87617
 647,34;  669,480; -171,031;    0,000;840,51074
 647,50;  726,615; -230,031;    0,000;956,64531
 647,65;  789,549;  -82,030;    0,000;871,57988
 647,80;  894,184;  121,970;    0,000;772,21445
 647,96;  746,019;    6,970;    0,000;739,04902
 648,11;  677,053; -132,030;    0,000;809,08359
 648,26;  804,688;   13,970;    0,000;790,71816
 648,41;  549,523; -359,030;    0,000;908,55273
 648,57;  991,057;  117,970;    0,000;873,08730
 648,72; 1077,592;  134,970;    0,000;942,62186
 648,87; 1012,827;  242,970;    0,000;769,85643
 649,03;  584,261; -289,030;    0,000;873,29100
 649,18; 1120,196;  368,970;    0,000;751,22557
 649,33;  752,131;   48,971;    0,000;703,16014
 649,49;  928,465;   95,971;    0,000;832,49471
 649,64;  927,900;  148,971;    0,000;778,92928
 649,79;  933,835;  157,971;    0,000;775,86385
 649,94;  857,569;   45,971;    0,000;811,59842
 650,10; 1054,404;  242,971;    0,000;811,43299
 650,25;  798,839;  -70,029;    0,000;868,86756
 650,40;  873,273;  126,971;    0,000;746,30212
 650,56; 1025,608;  268,971;    0,000;756,63669
 650,71;  643,143; -116,029;    0,000;759,17126
 650,86;  788,077;  -17,028;    0,000;805,10583
 651,01;  620,912; -200,028;    0,000;820,94040
 651,17; 1024,747;  242,972;    0,000;781,77497
 651,32;  535,481; -221,028;    0,000;756,50954
 651,47;  801,216;    5,972;    0,000;795,24411
 651,63;  814,051;   49,972;    0,000;764,07868
 651,78; 1130,685;  261,972;    0,000;868,71325
 651,93;  554,420; -156,028;    0,000;710,44782
 652,08; 1204,555;  336,972;    0,000;867,58238
 652,24;  679,189;  -84,028;    0,000;763,21695
 652,39;  800,124;  -31,027;    0,000;831,15152
 652,54;  913,159;   87,973;    0,000;825,18609
 652,70;  783,493;  -62,027;    0,000;845,52066
 652,85;  923,828;  -27,027;    0,000;950,85523
 653,00; 1292,963;  -76,027;    0,000;1368,98980
 653,15; 1284,397;    0,973;    0,000;1283,42437
 653,31;  923,232;  -86,027;    0,000;1009,25894
 653,46;  812,667;  -12,027;    0,000;824,69351
 653,61; 1359,601;  519,973;    0,000;839,62807
 653,77;  907,936;   50,973;    0,000;856,96264
 653,92;  816,471;  -34,027;    0,000;850,49721
 654,07; 1012,405;  195,974;    0,000;816,43178
 654,22;  851,340;   63,974;    0,000;787,36635
 654,38;  654,475; -229,026;    0,000;883,50092
 654,53;  744,409; -105,026;    0,000;849,43549
 654,68;  867,444;  -78,026;    0,000;945,47006
 654,83;  746,379; -350,026;    0,000;1096,40463
 654,99; 1333,213;   78,974;    0,000;1254,23920
 655,14; 2001,148;  -55,026;    0,000;2056,17377
 655,29; 8218,583;  -92,026;    0,000;8310,60833
 655,44;30627,517;  254,974;    0,000;30372,54290
 655,60;32033,752;   71,975;    0,000;31961,77747
 655,75;16618,587;  -79,025;    0,000;16697,61204
 655,90; 7148,321; 1066,975;    0,000;6081,34661
 656,06; 2297,456;  -66,025;    0,000;2363,48118
 656,21; 1808,291;  281,975;    0,000;1526,31575
 656,36; 1434,025;  211,975;    0,000;1222,05032
 656,51; 1220,360;  216,975;    0,000;1003,38489
 656,67;  889,495; -117,025;    0,000;1006,51946
 656,82;  849,829;  -78,025;    0,000;927,85403
 656,97; 1154,964;  300,975;    0,000;853,98859
 657,12; 1136,099;  322,976;    0,000;813,12316
 657,28;  919,433;  181,976;    0,000;737,45773
 657,43; 1216,468;  353,976;    0,000;862,49230
 657,58;  847,503;  -49,024;    0,000;896,52687
 657,73; 1034,137;  170,976;    0,000;863,16144
 657,89;  797,172;   62,976;    0,000;734,19601
 658,04; 1261,507;  467,976;    0,000;793,53058
 658,19;  964,741;  236,976;    0,000;727,76515
 658,34;  618,676;  -78,024;    0,000;696,69972
 658,50;  797,211;  -49,024;    0,000;846,23429
 658,65;  829,145;    3,977;    0,000;825,16885
 658,80;  729,480; -108,023;    0,000;837,50342
 658,95;  797,815;    6,977;    0,000;790,83799
 659,11;  999,649;  200,977;    0,000;798,67256
 659,26;  803,884;  -90,023;    0,000;893,90713
 659,41; 1336,419;  421,977;    0,000;914,44170
 659,56; 1662,053;   60,977;    0,000;1601,07627
 659,72; 2799,688;   38,977;    0,000;2760,71084
 659,87; 2246,323;  -71,023;    0,000;2317,34541
 660,02; 1675,457;   96,977;    0,000;1578,47998
 660,17; 1273,692;  207,977;    0,000;1065,71454
 660,32;  948,727;  199,978;    0,000;748,74911
 660,48;  783,161;   37,978;    0,000;745,18368
 660,63;  753,996;  -56,022;    0,000;810,01825
 660,78; 1058,131;  312,978;    0,000;745,15282
 660,93;  659,065; -136,022;    0,000;795,08739
 661,09;  723,000; -117,022;    0,000;840,02196
 661,24;  598,435; -163,022;    0,000;761,45653
 661,39;  988,769;  284,978;    0,000;703,79110
 661,54;  685,604;  -54,022;    0,000;739,62567
 661,70;  760,339;   26,978;    0,000;733,36024
 661,85;  770,573;  -29,021;    0,000;799,59480
 662,00; 1107,308;  430,979;    0,000;676,32937
 662,15;  580,543;  -86,021;    0,000;666,56394
 662,30;  614,577;  -78,021;    0,000;692,59851
 662,46;  643,512; -107,021;    0,000;750,53308
 662,61;  788,047;   27,979;    0,000;760,06765
 662,76;  941,281;  244,979;    0,000;696,30222
 662,91;  520,516; -122,021;    0,000;642,53679
 663,07;  542,151; -179,021;    0,000;721,17136
 663,22;  588,285;  -71,021;    0,000;659,30593
 663,37;  824,820;  163,980;    0,000;660,84050
 663,52;  702,455;   52,980;    0,000;649,47506
 663,67;  856,289;  144,980;    0,000;711,30963
 663,83;  715,224;  132,980;    0,000;582,24420
 663,98;  792,059;   51,980;    0,000;740,07877
 664,13; 1091,593;  450,980;    0,000;640,61334
 664,28;  698,128;  -86,020;    0,000;784,14791
 664,43;  543,063; -123,020;    0,000;666,08248
 664,59;  897,197;  219,980;    0,000;677,21705
 664,74;  886,832;  166,980;    0,000;719,85162
 664,89;  751,567;  100,981;    0,000;650,58619
 665,04;  749,701;   71,981;    0,000;677,72076
 665,20;  800,636; -158,019;    0,000;958,65532
 665,35; 1021,971;  -97,019;    0,000;1118,98989
 665,50;  818,905; -275,019;    0,000;1093,92446
 665,65; 1326,340;  134,981;    0,000;1191,35903
 665,80;  720,375; -254,019;    0,000;974,39360
 665,96;  634,109; -100,019;    0,000;734,12817
 666,11; 1041,344;  298,981;    0,000;742,36274
 666,26;  579,279; -211,019;    0,000;790,29731
 666,41;  953,013;  300,981;    0,000;652,03188
 666,56;  940,748;   45,982;    0,000;894,76645
 666,72; 1533,483; -130,018;    0,000;1663,50102
 666,87; 6241,917;  245,982;    0,000;5995,93558
 667,02; 7413,852;    7,982;    0,000;7405,87015
 667,17; 4626,887;   66,982;    0,000;4559,90472
 667,32; 2242,921;  100,982;    0,000;2141,93929
 667,48; 1188,656;   83,982;    0,000;1104,67386
 667,63;  857,491;   54,982;    0,000;802,50843
 667,78;  593,025; -157,018;    0,000;750,04300
 667,93;  751,860;   42,982;    0,000;708,87757
 668,08;  847,795;  134,983;    0,000;712,81214
 668,24; 1153,629;  495,983;    0,000;657,64671
 668,39;  731,264;    9,983;    0,000;721,28127
 668,54;  760,599;   88,983;    0,000;671,61584
 668,69;  780,033;  143,983;    0,000;636,05041
 668,84;  628,268;   24,983;    0,000;603,28498
 668,99;  906,603;   74,983;    0,000;831,61955
 669,15;  943,537;   24,983;    0,000;918,55412
 669,30;  843,572;   46,983;    0,000;796,58869
 669,45;  775,407;   71,983;    0,000;703,42326
 669,60;  767,941;   68,984;    0,000;698,95783
 669,75;  769,776;  128,984;    0,000;640,79240
 669,91;  621,311;   -9,016;    0,000;630,32697
 670,06;  750,945;   90,984;    0,000;659,96153
 670,21;  504,280; -111,016;    0,000;615,29610
 670,36;  545,715; -190,016;    0,000;735,73067
 670,51;  739,849;  126,984;    0,000;612,86524
 670,66;  466,484; -125,016;    0,000;591,49981
 670,82;  969,319;  317,984;    0,000;651,33438
 670,97;  643,753;  -72,016;    0,000;715,76895
 671,12;  865,888;  -16,015;    0,000;881,90352
 671,27;  872,223;   38,985;    0,000;833,23809
 671,42;  807,157;   69,985;    0,000;737,17266
 671,57;  497,092; -217,015;    0,000;714,10722
 671,73;  699,327;   30,985;    0,000;668,34179
 671,88;  629,761;  -22,015;    0,000;651,77636
 672,03;  736,796;  145,985;    0,000;590,81093
 672,18;  358,031; -257,015;    0,000;615,04550
 672,33;  855,665;  107,985;    0,000;747,68007
 672,48;  558,600;    8,985;    0,000;549,61464
 672,64;  820,835;  231,985;    0,000;588,84921
 672,79;  424,969; -225,014;    0,000;649,98378
 672,94;  704,404;  141,986;    0,000;562,41835
 673,09;  584,839;  -58,014;    0,000;642,85292
 673,24;  604,773;   60,986;    0,000;543,78748
 673,39;  483,508; -134,014;    0,000;617,52205
 673,55;  683,443;  113,986;    0,000;569,45662
 673,70;  706,777;   24,986;    0,000;681,79119
 673,85;  758,112;  117,986;    0,000;640,12576
 674,00;  798,647;   69,986;    0,000;728,66033
 674,15;  870,081;  -42,014;    0,000;912,09490
 674,30; 2818,616;  -29,013;    0,000;2847,62947
 674,46;10087,751;   -7,013;    0,000;10094,76404
 674,61;10249,485; -251,013;    0,000;10500,49861
 674,76; 6284,420;  251,987;    0,000;6032,43318
 674,91; 3107,655;   94,987;    0,000;3012,66774
 675,06; 1574,389;   29,987;    0,000;1544,40231
 675,21;  739,524; -128,013;    0,000;867,53688
 675,36;  840,859;  146,987;    0,000;693,87145
 675,52;  697,893;  -24,013;    0,000;721,90602
 675,67;  559,128; -136,013;    0,000;695,14059
 675,82; 1188,263;  102,988;    0,000;1085,27516
 675,97; 1082,097;  -11,012;    0,000;1093,10973
 676,12; 1128,232;  166,988;    0,000;961,24430
 676,27; 1000,167;  332,988;    0,000;667,17887
 676,42;  720,201;   93,988;    0,000;626,21344
 676,58;  831,436;  159,988;    0,000;671,44800
 676,73;  789,571;   95,988;    0,000;693,58257
 676,88;  642,305;  -30,012;    0,000;672,31714
 677,03;  798,740;  119,988;    0,000;678,75171
 677,18;  933,175;  325,988;    0,000;607,18628
 677,33;  760,809;   35,989;    0,000;724,82085
 677,48;  607,944;  -23,011;    0,000;630,95542
 677,64;  626,379;    4,989;    0,000;621,38999
 677,79;  559,613;  -15,011;    0,000;574,62456
 677,94; 1048,148;  318,989;    0,000;729,15913
 678,09;  547,383;  -95,011;    0,000;642,39369
 678,24;  413,717; -302,011;    0,000;715,72826
 678,39; 1133,952;  556,989;    0,000;576,96283
 678,54;  332,987; -312,011;    0,000;644,99740
 678,69;  697,921;  133,989;    0,000;563,93197
 678,85;  555,056;  -30,011;    0,000;585,06654
 679,00;  367,991; -342,010;    0,000;710,00111
 679,15;  812,225;  247,990;    0,000;564,23568
 679,30;  508,260; -217,010;    0,000;725,27025
 679,45;  584,795;  -13,010;    0,000;597,80482
 679,60;  567,829;   27,990;    0,000;539,83939
 679,75;  801,664;  122,990;    0,000;678,67395
 679,90;  686,999;  116,990;    0,000;570,00852
 680,06;  744,433;   56,990;    0,000;687,44309
 680,21;  596,168;   41,990;    0,000;554,17766
 680,36;  661,203;   19,990;    0,000;641,21223
 680,51;  819,737;  183,991;    0,000;635,74680
 680,66;  499,872;  -46,009;    0,000;545,88137
 680,81; 1169,607;  538,991;    0,000;630,61594
 680,96;  862,441;  162,991;    0,000;699,45051
 681,11;  652,676;  -69,009;    0,000;721,68508
 681,27;  820,311;   93,991;    0,000;726,31965
 681,42;  863,345;  269,991;    0,000;593,35421
 681,57;  676,480;   26,991;    0,000;649,48878
 681,72;  811,015;  111,991;    0,000;699,02335
 681,87;  962,849;  196,991;    0,000;765,85792
 682,02;  927,084;  101,992;    0,000;825,09249
 682,17;  945,419;  186,992;    0,000;758,42706
 682,32;  450,153; -172,008;    0,000;622,16163
 682,47;  796,088;  137,992;    0,000;658,09620
 682,63;  476,023; -217,008;    0,000;693,03077
 682,78;  489,457; -179,008;    0,000;668,46534
 682,93;  724,692;   81,992;    0,000;642,69991
 683,08;  710,727;  -36,008;    0,000;746,73447
 683,23;  589,961;  -80,008;    0,000;669,96904
 683,38;  918,796;  208,992;    0,000;709,80361
 683,53;  905,531;  298,992;    0,000;606,53818
 683,68;  737,065;   60,993;    0,000;676,07275
 683,83;  940,200;  330,993;    0,000;609,20732
 683,98;  653,835;  -64,007;    0,000;717,84189
 684,14;  651,769;   16,993;    0,000;634,77646
 684,29;  460,504; -165,007;    0,000;625,51103
 684,44;  702,839;   30,993;    0,000;671,84560
 684,59;  906,573;  136,993;    0,000;769,58017
 684,74;  787,608;  150,993;    0,000;636,61473
 684,89;  448,943; -224,007;    0,000;672,94930
 685,04;  897,877;  247,993;    0,000;649,88387
 685,19;  590,512; -153,006;    0,000;743,51844
 685,34;  442,447; -261,006;    0,000;703,45301
 685,49; 1050,481;  410,994;    0,000;639,48758
 685,64;  701,816;  -41,006;    0,000;742,82215
 685,80;  717,951;  -92,006;    0,000;809,95672
 685,95;  837,985;  -38,006;    0,000;875,99129
 686,10; 1355,520; -167,006;    0,000;1522,52586
 686,25; 6521,455;  249,994;    0,000;6271,46042
 686,40; 9806,989;   98,994;    0,000;9707,99499
 686,55; 6048,824; -257,006;    0,000;6305,82956
 686,70; 3314,859;   70,995;    0,000;3243,86413
 686,85; 1681,593;   96,995;    0,000;1584,59870
 687,00;  921,528; -207,005;    0,000;1128,53327
 687,15; 1145,063;  -52,005;    0,000;1197,06784
 687,30; 1193,397;  126,995;    0,000;1066,40241
 687,45; 1212,832;  229,995;    0,000;982,83698
 687,60;  922,667;   47,995;    0,000;874,67155
 687,76; 1085,001;  336,995;    0,000;748,00612
 687,91; 1543,636;  175,995;    0,000;1367,64068
 688,06; 1762,771;   77,995;    0,000;1684,77525
 688,21; 1591,005;  226,996;    0,000;1364,00982
 688,36;  920,840;  -33,004;    0,000;953,84439
 688,51;  701,475; -120,004;    0,000;821,47896
 688,66;  612,109; -183,004;    0,000;795,11353
 688,81; 1173,844;  450,996;    0,000;722,84810
 688,96;  355,379; -202,004;    0,000;557,38267
 689,11;  761,813;   66,996;    0,000;694,81724
 689,26;  568,648;  -61,004;    0,000;629,65181
 689,41;  525,283;  -78,004;    0,000;603,28638
 689,56;  972,917;  279,996;    0,000;692,92094
 689,71;  389,052; -331,004;    0,000;720,05551
 689,87;  934,387;  191,997;    0,000;742,39008
 690,02;  621,921;  -71,003;    0,000;692,92465
 690,17;  847,756; -144,003;    0,000;991,75922
 690,32; 1720,491;  -78,003;    0,000;1798,49379
 690,47; 1509,425;   -3,003;    0,000;1512,42836
 690,62; 1144,660;   25,997;    0,000;1118,66293
 690,77; 1124,195;  428,997;    0,000;695,19750
 690,92;  518,329; -124,003;    0,000;642,33207
 691,07;  510,164;  -76,003;    0,000;586,16664
 691,22;  903,599;  201,997;    0,000;701,60120
 691,37;  787,333;  163,998;    0,000;623,33577
 691,52;  614,268;  -70,002;    0,000;684,27034
 691,67; 1268,103;  584,998;    0,000;683,10491
 691,82;  439,037; -286,002;    0,000;725,03948
 691,97;  860,272;  171,998;    0,000;688,27405
 692,12;  608,007;  -52,002;    0,000;660,00862
 692,27; 1086,341;  343,998;    0,000;742,34319
 692,42;  965,176;  113,998;    0,000;851,17776
 692,57;  881,511;   -2,002;    0,000;883,51233
 692,73; 1061,445;  -20,002;    0,000;1081,44689
 692,88; 3330,880;  100,999;    0,000;3229,88146
 693,03; 6183,415; -170,001;    0,000;6353,41603
 693,18; 5406,149;  -48,001;    0,000;5454,15060
 693,33; 3361,884;  116,999;    0,000;3244,88517
 693,48; 1917,219;   22,999;    0,000;1894,21974
 693,63; 1583,453;   45,999;    0,000;1537,45431
 693,78; 1710,288;  545,999;    0,000;1164,28888
 693,93; 1036,523; -230,001;    0,000;1266,52345
 694,08; 1513,957;   88,999;    0,000;1424,95802
 694,23; 1665,392; -127,001;    0,000;1792,39259
 694,38; 2228,627;   96,000;    0,000;2132,62715
 694,53; 2225,361; -309,000;    0,000;2534,36172
 694,68; 2928,196;  186,000;    0,000;2742,19629
 694,83; 3316,331;  -66,000;    0,000;3382,33086
 694,98; 4238,965; -167,000;    0,000;4405,96543
 695,13; 7138,800;  214,000;    0,000;6924,80000
 695,28;11440,900;    0,000;    0,000;11440,90000
 695,43;26980,600;   61,000;    0,000;26919,60000
 695,58;63987,200; -276,000;    0,000;64263,20000
 695,73;63913,200;  322,000;    0,000;63591,20000
 695,88;63987,200;  388,000;    0,000;63599,20000
 696,03;63913,200;  -44,000;    0,000;63957,20000
 696,18;63987,200;  -27,000;    0,000;64014,20000
 696,33;63913,200; -216,000;    0,000;64129,20000
 696,48;63987,200;  326,000;    0,000;63661,20000
 696,63;63913,200;  280,000;    0,000;63633,20000
 696,78;63987,200;   79,000;    0,000;63908,20000
 696,93;63913,200; -138,000;    0,000;64051,20000
 697,08;63987,200;  -91,000;    0,000;64078,20000
 697,23;63913,200;   53,000;    0,000;63860,20000
 697,38;63987,200;   53,000;    0,000;63934,20000
 697,53;63913,200; -157,000;    0,000;64070,20000
 697,68;63987,200;  220,000;    0,000;63767,20000
 697,84;63913,200; -170,000;    0,000;64083,20000
 697,99;54535,700; -119,000;    0,000;54654,70000
 698,14;63913,200;   86,000;    0,000;63827,20000
 698,29; 5018,700;   88,000;    0,000;4930,70000
 698,44; 9723,900; -100,000;    0,000;9823,90000
 698,59; 3709,100; -104,000;    0,000;3813,10000
 698,74; 4191,200;   28,000;    0,000;4163,20000
 698,89; 3485,000;  560,000;    0,000;2925,00000
 699,04; 3270,900;  198,000;    0,000;3072,90000
 699,19; 2616,000;  187,000;    0,000;2429,00000
 699,34; 2367,600; -148,000;    0,000;2515,60000
 699,49; 2192,800;  109,000;    0,000;2083,80000
 699,64; 2213,600;  164,000;    0,000;2049,60000
 699,79; 2121,400;  448,000;    0,000;1673,40000
 699,94; 1728,700;  -19,000;    0,000;1747,70000
 700,09; 1420,900; -119,000;    0,000;1539,90000
 700,24; 1636,400;  112,000;    0,000;1524,40000
 700,39; 1641,000;  231,000;    0,000;1410,00000
 700,54; 1530,500;  214,000;    0,000;1316,50000
 700,69; 1216,200;  -63,000;    0,000;1279,20000
 700,84; 1388,900;   78,000;    0,000;1310,90000
 700,99; 1296,000;  143,000;    0,000;1153,00000
 701,14; 1349,300;  111,000;    0,000;1238,30000
 701,29; 1256,500;   52,000;    0,000;1204,50000
 701,44; 1098,600;  -78,000;    0,000;1176,60000
 701,59; 1114,000;   72,000;    0,000;1042,00000
 701,74; 1199,000; -103,000;    0,000;1302,00000
 701,89; 1069,700; -220,000;    0,000;1289,70000
 702,04; 2312,100; -128,000;    0,000;2440,10000
 702,19; 6987,500;  -62,000;    0,000;7049,50000
 702,34; 8059,600;  -62,000;    0,000;8121,60000
 702,48; 4802,200; -171,000;    0,000;4973,20000
 702,63; 2565,000;  -84,000;    0,000;2649,00000
 702,78; 1624,700;   -7,000;    0,000;1631,70000
 702,93;  936,200; -357,000;    0,000;1293,20000
 703,08; 1579,000;  378,000;    0,000;1201,00000
 703,23; 1236,100;  132,000;    0,000;1104,10000
 703,38; 1299,500;  131,000;    0,000;1168,50000
 703,53; 1274,200;  136,000;    0,000;1138,20000
 703,68; 1345,900;  152,000;    0,000;1193,90000
 703,83; 1304,600;  107,000;    0,000;1197,60000
 703,98; 1180,400;  -25,000;    0,000;1205,40000
 704,13; 1134,100; -199,000;    0,000;1333,10000
 704,28; 1581,300;  187,000;    0,000;1394,30000
 704,43; 1449,100;   14,000;    0,000;1435,10000
 704,58; 1810,000;  208,000;    0,000;1602,00000
 704,73; 2062,400;  177,000;    0,000;1885,40000
 704,88; 2431,100;  241,000;    0,000;2190,10000
 705,03; 2774,500;    5,000;    0,000;2769,50000
 705,18; 3623,700;   56,000;    0,000;3567,70000
 705,33; 5266,700;   12,000;    0,000;5254,70000
 705,48; 8402,500;  -75,000;    0,000;8477,50000
 705,63;20826,700; -106,000;    0,000;20932,70000
 705,78;63987,200;  363,000;    0,000;63624,20000
 705,93;63913,200;  558,000;    0,000;63355,20000
 706,08;63987,200;   33,000;    0,000;63954,20000
 706,23;63913,200;  310,000;    0,000;63603,20000
 706,38;63987,200; -140,000;    0,000;64127,20000
 706,53;63913,200; -151,000;    0,000;64064,20000
 706,68;63987,200;  266,000;    0,000;63721,20000
 706,83;63913,200;   10,000;    0,000;63903,20000
 706,98;63987,200;  486,000;    0,000;63501,20000
 707,13;63913,200; -300,000;    0,000;64213,20000
 707,28;63987,200;  233,000;    0,000;63754,20000
 707,43;63913,200;  -23,000;    0,000;63936,20000
 707,57;33863,700;  238,000;    0,000;33625,70000
 707,72;63356,900;   49,000;    0,000;63307,90000
 707,87; 4200,500;   23,000;    0,000;4177,50000
 708,02; 4954,300;  -18,000;    0,000;4972,30000
 708,17; 3133,000;  309,000;    0,000;2824,00000
 708,32; 3390,500;  385,000;    0,000;3005,50000
 708,47; 2266,500;   63,000;    0,000;2203,50000
 708,62; 2401,400;  -19,000;    0,000;2420,40000
 708,77; 2205,400;  374,000;    0,000;1831,40000
 708,92; 2171,200;  106,000;    0,000;2065,20000
 709,07; 1528,600; -159,000;    0,000;1687,60000
 709,22; 2124,400;  363,000;    0,000;1761,40000
 709,37; 1657,400;  173,000;    0,000;1484,40000
 709,52; 1474,500;  -79,000;    0,000;1553,50000
 709,67; 1647,500;  200,000;    0,000;1447,50000
 709,82; 2026,100;   60,000;    0,000;1966,10000
 709,97; 2530,100;  130,000;    0,000;2400,10000
 710,12; 2218,400;  -66,000;    0,000;2284,40000
 710,26; 1720,400;  113,000;    0,000;1607,40000
 710,41; 1840,200;  406,000;    0,000;1434,20000
 710,56;  969,400; -163,000;    0,000;1132,40000
 710,71; 1060,600;  -89,000;    0,000;1149,60000
 710,86;  905,000; -196,000;    0,000;1101,00000
 711,01; 1179,300;   84,000;    0,000;1095,30000
 711,16; 1149,300;   12,000;    0,000;1137,30000
 711,31;  796,800; -292,000;    0,000;1088,80000
 711,46; 1116,900;  118,000;    0,000;998,90000
 711,61; 2118,000; 1026,000;    0,000;1092,00000
 711,76; 1081,400; -325,000;    0,000;1406,40000
 711,91; 1337,600;  -88,000;    0,000;1425,60000
 712,06; 1291,100;  157,000;    0,000;1134,10000
 712,21; 1040,900;  -67,000;    0,000;1107,90000
 712,36; 1168,400;  194,000;    0,000;974,40000
 712,50;  884,400;  -59,000;    0,000;943,40000
 712,65;  948,600;  -11,000;    0,000;959,60000
 712,80; 1088,300;   32,000;    0,000;1056,30000
 712,95;  844,300; -155,000;    0,000;999,30000
 713,10;  852,900; -319,000;    0,000;1171,90000
 713,25; 1291,800;  173,000;    0,000;1118,80000
 713,40; 1384,700;   26,000;    0,000;1358,70000
 713,55; 2052,700;   43,000;    0,000;2009,70000
 713,70; 6611,300;  152,000;    0,000;6459,30000
 713,85;34211,200;  281,000;    0,000;33930,20000
 714,00;44953,600;  -90,000;    0,000;45043,60000
 714,15;25362,400;  112,000;    0,000;25250,40000
 714,29;11553,900;   25,000;    0,000;11528,90000
 714,44; 4758,100; -203,000;    0,000;4961,10000
 714,59; 2154,200;  -80,000;    0,000;2234,20000
 714,74; 1701,800;  300,000;    0,000;1401,80000
 714,89; 1135,900;  -90,000;    0,000;1225,90000
 715,04; 1657,800;  105,000;    0,000;1552,80000
 715,19; 1363,300;  -98,000;    0,000;1461,30000
 715,34; 1107,100;  -39,000;    0,000;1146,10000
 715,49;  606,900; -286,000;    0,000;892,90000
 715,64; 1012,800;   68,000;    0,000;944,80000
 715,79;  774,500;  -44,000;    0,000;818,50000
 715,93;  710,900;  -10,000;    0,000;720,90000
 716,08;  882,300;  102,000;    0,000;780,30000
 716,23; 1165,700;  474,000;    0,000;691,70000
 716,38;  622,700; -180,000;    0,000;802,70000
 716,53;  565,900; -105,000;    0,000;670,90000
 716,68;  556,400; -245,000;    0,000;801,40000
 716,83;  679,600;  -36,000;    0,000;715,60000
 716,98;  567,100; -191,000;    0,000;758,10000
 717,13;  605,300; -107,000;    0,000;712,30000
 717,28;  825,100;   81,000;    0,000;744,10000
 717,42;  755,300;  122,000;    0,000;633,30000
 717,57;  839,100;   60,000;    0,000;779,10000
 717,72;  840,300;  165,000;    0,000;675,30000
 717,87;  399,400; -228,000;    0,000;627,40000
 718,02; 1133,300;  567,000;    0,000;566,30000
 718,17;  689,800;   15,000;    0,000;674,80000
 718,32;  614,400;  -49,000;    0,000;663,40000
 718,47;  562,700;  -54,000;    0,000;616,70000
 718,62;  564,000;  -87,000;    0,000;651,00000
 718,76;  365,500; -273,000;    0,000;638,50000
 718,91;  780,900;  124,000;    0,000;656,90000
 719,06;  528,200; -135,000;    0,000;663,20000
 719,21;  454,200; -214,000;    0,000;668,20000
 719,36;  627,300;  -86,000;    0,000;713,30000
 719,51;  755,400;  132,000;    0,000;623,40000
 719,66;  543,600; -302,000;    0,000;845,60000
 719,81; 1737,800;  175,000;    0,000;1562,80000
 719,95; 1910,300; -335,000;    0,000;2245,30000
 720,10; 1651,300;  -66,000;    0,000;1717,30000
 720,25; 1122,800;  -38,000;    0,000;1160,80000
 720,40;  569,700; -260,000;    0,000;829,70000
 720,55;  444,100; -267,000;    0,000;711,10000
 720,70;  526,600; -159,000;    0,000;685,60000
 720,85;  562,400;  -15,000;    0,000;577,40000
 721,00;  507,800;   18,000;    0,000;489,80000
 721,14;  598,100;  -34,000;    0,000;632,10000
 721,29;  674,000;  133,000;    0,000;541,00000
 721,44;  351,700; -234,000;    0,000;585,70000
 721,59;  961,400;  357,000;    0,000;604,40000
 721,74;  637,200;   21,000;    0,000;616,20000
 721,89;  454,200; -180,000;    0,000;634,20000
 722,04;  591,900;  -68,000;    0,000;659,90000
 722,19;  727,600;  112,000;    0,000;615,60000
 722,33;  636,400;  -92,000;    0,000;728,40000
 722,48;  639,900;   27,000;    0,000;612,90000
 722,63;  433,800; -222,000;    0,000;655,80000
 722,78;  605,600;   35,000;    0,000;570,60000
 722,93;  724,600;   64,000;    0,000;660,60000
 723,08;  675,900;  179,000;    0,000;496,90000
 723,23;  386,300; -215,000;    0,000;601,30000
 723,37;  584,100;   18,000;    0,000;566,10000
 723,52;  662,800;  105,000;    0,000;557,80000
 723,67;  460,200;  -69,000;    0,000;529,20000
 723,82;  372,400; -169,000;    0,000;541,40000
 723,97;  765,000;  161,000;    0,000;604,00000
 724,12;  546,100;  -83,000;    0,000;629,10000
 724,27;  903,100;  241,000;    0,000;662,10000
 724,41;  596,900;  -13,000;    0,000;609,90000
 724,56;  665,400;   94,000;    0,000;571,40000
 724,71;  578,100;  -28,000;    0,000;606,10000
 724,86;  787,300;  145,000;    0,000;642,30000
 725,01;  758,000;   20,000;    0,000;738,00000
 725,16;  662,900;   -4,000;    0,000;666,90000
 725,30;  926,700;  105,000;    0,000;821,70000
 725,45;  918,800;  -45,000;    0,000;963,80000
 725,60; 1009,200; -292,000;    0,000;1301,20000
 725,75; 1462,400; -183,000;    0,000;1645,40000
 725,90; 1840,600; -130,000;    0,000;1970,60000
 726,05; 2670,600; -207,000;    0,000;2877,60000
 726,19; 6430,900;  119,000;    0,000;6311,90000
 726,34;39789,900;   59,000;    0,000;39730,90000
 726,49;63913,200; -178,000;    0,000;64091,20000
 726,64;63987,200;  -48,000;    0,000;64035,20000
 726,79;63913,200;   26,000;    0,000;63887,20000
 726,94;43087,500;  168,000;    0,000;42919,50000
 727,08;15058,500;  -51,000;    0,000;15109,50000
 727,23; 5195,200;  -86,000;    0,000;5281,20000
 727,38; 4045,100;  110,000;    0,000;3935,10000
 727,53; 2237,100; -188,000;    0,000;2425,10000
 727,68; 2347,900;  -66,000;    0,000;2413,90000
 727,83; 2124,100;  345,000;    0,000;1779,10000
 727,97; 1899,000;    1,000;    0,000;1898,00000
 728,12; 1031,000; -400,000;    0,000;1431,00000
 728,27; 1574,600;   14,000;    0,000;1560,60000
 728,42; 1318,400;   90,000;    0,000;1228,40000
 728,57; 1200,200; -188,000;    0,000;1388,20000
 728,72; 1217,000;    9,000;    0,000;1208,00000
 728,86; 1375,100;   92,000;    0,000;1283,10000
 729,01; 1367,900;  338,000;    0,000;1029,90000
 729,16; 1213,400;  113,000;    0,000;1100,40000
 729,31; 1239,400;  175,000;    0,000;1064,40000
 729,46; 1170,700;  138,000;    0,000;1032,70000
 729,61;  984,100;  -13,000;    0,000;997,10000
 729,75;  936,100;  -73,000;    0,000;1009,10000
 729,90; 1354,400;  325,000;    0,000;1029,40000
 730,05;  998,200;  -15,000;    0,000;1013,20000
 730,20; 1414,200;  228,000;    0,000;1186,20000
 730,35; 2268,800;  137,000;    0,000;2131,80000
 730,49; 2165,100;  -34,000;    0,000;2199,10000
 730,64; 1813,200;  -38,000;    0,000;1851,20000
 730,79; 1987,400;  187,000;    0,000;1800,40000
 730,94; 1567,500;   20,000;    0,000;1547,50000
 731,09; 1202,800;    5,000;    0,000;1197,80000
 731,23; 1049,900;   -3,000;    0,000;1052,90000
 731,38;  646,900; -248,000;    0,000;894,90000
 731,53;  678,900; -225,000;    0,000;903,90000
 731,68;  402,400; -283,000;    0,000;685,40000
 731,83;  804,400;    8,000;    0,000;796,40000
 731,97;  665,400;   -7,000;    0,000;672,40000
 732,12;  886,300;  126,000;    0,000;760,30000
 732,27;  724,300;   60,000;    0,000;664,30000
 732,42;  674,000; -120,000;    0,000;794,00000
 732,57;  828,500;   85,000;    0,000;743,50000
 732,71; 1027,000;  224,000;    0,000;803,00000
 732,86;  697,900;   40,000;    0,000;657,90000
 733,01;  755,900;   16,000;    0,000;739,90000
 733,16;  861,900;  193,000;    0,000;668,90000
 733,31;  626,900; -186,000;    0,000;812,90000
 733,45;  930,300;  193,000;    0,000;737,30000
 733,60; 1141,200;  376,000;    0,000;765,20000
 733,75;  590,900; -271,000;    0,000;861,90000
 733,90;  715,000; -190,000;    0,000;905,00000
 734,05;  748,800;  -84,000;    0,000;832,80000
 734,19; 1172,400;  106,000;    0,000;1066,40000
 734,34; 1336,400; -319,000;    0,000;1655,40000
 734,49; 3840,500;    6,000;    0,000;3834,50000
 734,64; 4038,000; -114,000;    0,000;4152,00000
 734,79; 2470,300; -210,000;    0,000;2680,30000
 734,93; 1557,500; -242,000;    0,000;1799,50000
 735,08; 1516,700;  112,000;    0,000;1404,70000
 735,23; 1193,500;  -20,000;    0,000;1213,50000
 735,38; 1186,300;  -37,000;    0,000;1223,30000
 735,52; 1462,500;  170,000;    0,000;1292,50000
 735,67; 1239,400; -155,000;    0,000;1394,40000
 735,82; 1626,600;   69,000;    0,000;1557,60000
 735,97; 1757,700;   80,000;    0,000;1677,70000
 736,12; 2608,300;  454,000;    0,000;2154,30000
 736,26; 4778,400;   33,000;    0,000;4745,40000
 736,41;11799,700;  135,000;    0,000;11664,70000
 736,56;10951,400;  146,000;    0,000;10805,40000
 736,71; 7745,400;    3,000;    0,000;7742,40000
 736,85; 6826,300; -259,000;    0,000;7085,30000
 737,00; 9202,000;  265,000;    0,000;8937,00000
 737,15;13496,700; -301,000;    0,000;13797,70000
 737,30;32955,200; -238,000;    0,000;33193,20000
 737,44;63913,200; -449,000;    0,000;64362,20000
 737,59;63987,200;   29,000;    0,000;63958,20000
 737,74;63913,200;  210,000;    0,000;63703,20000
 737,89;63987,200;  -22,000;    0,000;64009,20000
 738,04;63913,200;   67,000;    0,000;63846,20000
 738,18;63987,200;   18,000;    0,000;63969,20000
 738,33;63913,200;   86,000;    0,000;63827,20000
 738,48;63987,200;   96,000;    0,000;63891,20000
 738,63;63913,200;   37,000;    0,000;63876,20000
 738,77;63987,200;  188,000;    0,000;63799,20000
 738,92;63913,200;  -55,000;    0,000;63968,20000
 739,07;63987,200; -288,000;    0,000;64275,20000
 739,22;63913,200;  450,000;    0,000;63463,20000
 739,36;63987,200;  -99,000;    0,000;64086,20000
 739,51;63913,200;  -96,000;    0,000;64009,20000
 739,66;63987,200;  -95,000;    0,000;64082,20000
 739,81;63913,200;   44,000;    0,000;63869,20000
 739,95;63987,200;  120,000;    0,000;63867,20000
 740,10;63442,300; -174,000;    0,000;63616,30000
 740,25;47474,600;  301,000;    0,000;47173,60000
 740,40; 5517,700;  -84,000;    0,000;5601,70000
 740,54; 5544,700;  317,000;    0,000;5227,70000
 740,69; 3562,100; -150,000;    0,000;3712,10000
 740,84; 3313,300; -128,000;    0,000;3441,30000
 740,99; 2308,900; -420,000;    0,000;2728,90000
 741,13; 2730,700;   79,000;    0,000;2651,70000
 741,28; 1996,500; -242,000;    0,000;2238,50000
 741,43; 2283,500;  -38,000;    0,000;2321,50000
 741,58; 3583,300; 1308,000;    0,000;2275,30000
 741,72; 2652,100;  125,000;    0,000;2527,10000
 741,87; 2479,800;  271,000;    0,000;2208,80000
 742,02; 1938,300;  -80,000;    0,000;2018,30000
 742,16; 2013,700;  261,000;    0,000;1752,70000
 742,31; 1789,700;  183,000;    0,000;1606,70000
 742,46; 2152,200;  510,000;    0,000;1642,20000
 742,61; 2130,000; -242,000;    0,000;2372,00000
 742,75; 4069,700;  260,000;    0,000;3809,70000
 742,90; 3611,600;   69,000;    0,000;3542,60000
 743,05; 2398,200;   -7,000;    0,000;2405,20000
 743,20; 1553,600; -262,000;    0,000;1815,60000
 743,34; 1237,600; -289,000;    0,000;1526,60000
 743,49; 1466,700;   99,000;    0,000;1367,70000
 743,64; 1380,500;  144,000;    0,000;1236,50000
 743,79; 1170,500;  -51,000;    0,000;1221,50000
 743,93; 1078,900; -213,000;    0,000;1291,90000
 744,08; 1168,800;   98,000;    0,000;1070,80000
 744,23; 1077,400;   -7,000;    0,000;1084,40000
 744,37; 1109,800;  -13,000;    0,000;1122,80000
 744,52;  790,800; -326,000;    0,000;1116,80000
 744,67; 1427,400;  324,000;    0,000;1103,40000
 744,82;  855,800;  -93,000;    0,000;948,80000
 744,96;  901,400; -139,000;    0,000;1040,40000
 745,11;  998,700;  -87,000;    0,000;1085,70000
 745,26; 1112,600;   22,000;    0,000;1090,60000
 745,40; 1045,400;   12,000;    0,000;1033,40000
 745,55; 1018,100;   66,000;    0,000;952,10000
 745,70;  929,100; -162,000;    0,000;1091,10000
 745,85; 1419,300;  241,000;    0,000;1178,30000
 745,99; 1055,400;  -21,000;    0,000;1076,40000
 746,14; 1558,400;  265,000;    0,000;1293,40000
 746,29; 2032,200; -213,000;    0,000;2245,20000
 746,43; 2437,100;  136,000;    0,000;2301,10000
 746,58; 1686,800;   14,000;    0,000;1672,80000
 746,73; 1674,900;  232,000;    0,000;1442,90000
 746,88; 1258,500;  -54,000;    0,000;1312,50000
 747,02; 1662,900;  408,000;    0,000;1254,90000
 747,17; 1372,800;   32,000;    0,000;1340,80000
 747,32; 1422,300;   60,000;    0,000;1362,30000
 747,46; 1560,700;  -20,000;    0,000;1580,70000
 747,61; 2198,700;  -98,000;    0,000;2296,70000
 747,76; 2304,000;  -96,000;    0,000;2400,00000
 747,90; 2131,400;   -5,000;    0,000;2136,40000
 748,05; 2040,000;  -80,000;    0,000;2120,00000
 748,20; 2318,200;   33,000;    0,000;2285,20000
 748,35; 2839,100;   97,000;    0,000;2742,10000
 748,49; 2936,600;  -57,000;    0,000;2993,60000
 748,64; 3398,200; -255,000;    0,000;3653,20000
 748,79; 4332,800; -383,000;    0,000;4715,80000
 748,93; 6420,100;  -44,000;    0,000;6464,10000
 749,08; 9560,100;  131,000;    0,000;9429,10000
 749,23;19239,100;  109,000;    0,000;19130,10000
 749,37;63558,100;  -39,000;    0,000;63597,10000
 749,52;63913,200; -126,000;    0,000;64039,20000
 749,67;63987,200;   25,000;    0,000;63962,20000
 749,81;63913,200; -129,000;    0,000;64042,20000
 749,96;63987,200;  113,000;    0,000;63874,20000
 750,11;63913,200;  166,000;    0,000;63747,20000
 750,26;63987,200; -104,000;    0,000;64091,20000
 750,40;63913,200; -108,000;    0,000;64021,20000
 750,55;63987,200;   40,000;    0,000;63947,20000
 750,70;63913,200;  252,000;    0,000;63661,20000
 750,84;63987,200;  212,000;    0,000;63775,20000
 750,99;63913,200;   40,000;    0,000;63873,20000
 751,14;63987,200;  473,000;    0,000;63514,20000
 751,28;63913,200; -166,000;    0,000;64079,20000
 751,43;63987,200;  251,000;    0,000;63736,20000
 751,58;63913,200; -134,000;    0,000;64047,20000
 751,72;63987,200;   -3,000;    0,000;63990,20000
 751,87;63913,200;   16,000;    0,000;63897,20000
 752,02;63987,200;   58,000;    0,000;63929,20000
 752,16;63913,200; -393,000;    0,000;64306,20000
 752,31;63987,200; -200,000;    0,000;64187,20000
 752,46;63913,200;  -68,000;    0,000;63981,20000
 752,60;63987,200;  407,000;    0,000;63580,20000
 752,75;63913,200;   65,000;    0,000;63848,20000
 752,90;63987,200; -102,000;    0,000;64089,20000
 753,04;63913,200;  234,000;    0,000;63679,20000
 753,19;63987,200;   89,000;    0,000;63898,20000
 753,34;63913,200;  -89,000;    0,000;64002,20000
 753,48;63987,200;   17,000;    0,000;63970,20000
 753,63;63913,200;  -63,000;    0,000;63976,20000
 753,78;63987,200;  176,000;    0,000;63811,20000
 753,92;63913,200;  -32,000;    0,000;63945,20000
 754,07;63987,200;   62,000;    0,000;63925,20000
 754,22;63913,200; -104,000;    0,000;64017,20000
 754,36; 6459,500;   83,000;    0,000;6376,50000
 754,51; 8039,200;  122,000;    0,000;7917,20000
 754,66; 3834,300; -207,000;    0,000;4041,30000
 754,80; 4046,800;  -85,000;    0,000;4131,80000
 754,95; 3216,500;   37,000;    0,000;3179,50000
 755,10; 3310,200;    7,000;    0,000;3303,20000
 755,24; 2951,800;  158,000;    0,000;2793,80000
 755,39; 3050,700;  198,000;    0,000;2852,70000
 755,54; 2578,700;  -26,000;    0,000;2604,70000
 755,68; 2494,200;  -10,000;    0,000;2504,20000
 755,83; 2399,500;   18,000;    0,000;2381,50000
 755,97; 2351,900;  -63,000;    0,000;2414,90000
 756,12; 2223,300;  136,000;    0,000;2087,30000
 756,27; 1913,500; -203,000;    0,000;2116,50000
 756,41; 1865,800;  -94,000;    0,000;1959,80000
 756,56; 1506,100; -395,000;    0,000;1901,10000
 756,71; 1927,200;  229,000;    0,000;1698,20000
 756,85; 1533,400; -200,000;    0,000;1733,40000
 757,00; 1765,900;  121,000;    0,000;1644,90000
 757,15; 1908,400;  193,000;    0,000;1715,40000
 757,29; 1850,800;  173,000;    0,000;1677,80000
 757,44; 1444,700; -228,000;    0,000;1672,70000
 757,58; 1894,000;  273,000;    0,000;1621,00000
 757,73; 1979,400;  352,000;    0,000;1627,40000
 757,88; 1682,400;   -1,000;    0,000;1683,40000
 758,02; 1625,300; -140,000;    0,000;1765,30000
 758,17; 1791,500;   65,000;    0,000;1726,50000
 758,32; 1982,700;  274,000;    0,000;1708,70000
 758,46; 1854,200;  255,000;    0,000;1599,20000
 758,61; 1605,200;  -77,000;    0,000;1682,20000
 758,76; 1901,300;  -41,000;    0,000;1942,30000
 758,90; 1769,600; -192,000;    0,000;1961,60000
 759,05; 2098,000;  282,000;    0,000;1816,00000
 759,19; 1764,200;  -85,000;    0,000;1849,20000
 759,34; 2002,700;    0,000;    0,000;2002,70000
 759,49; 2120,000;   55,000;    0,000;2065,00000
 759,63; 1864,500; -115,000;    0,000;1979,50000
 759,78; 2322,200;  173,000;    0,000;2149,20000
 759,93; 2189,100;  -38,000;    0,000;2227,10000
 760,07; 2292,200; -254,000;    0,000;2546,20000
 760,22; 2670,200;  122,000;    0,000;2548,20000
 760,36; 2615,200; -108,000;    0,000;2723,20000
 760,51; 2986,600;   83,000;    0,000;2903,60000
 760,66; 3165,600;  -63,000;    0,000;3228,60000
 760,80; 3609,600; -190,000;    0,000;3799,60000
 760,95; 4024,800; -191,000;    0,000;4215,80000
 761,09; 4613,900; -115,000;    0,000;4728,90000
 761,24; 5227,500; -259,000;    0,000;5486,50000
 761,39; 6546,100;   11,000;    0,000;6535,10000
 761,53; 8254,500;    1,000;    0,000;8253,50000
 761,68;10163,700;   61,000;    0,000;10102,70000
 761,83;13486,500;  -38,000;    0,000;13524,50000
 761,97;18519,800;   39,000;    0,000;18480,80000
 762,12;28676,400;  -89,000;    0,000;28765,40000
 762,26;46849,000;  147,000;    0,000;46702,00000
 762,41;63913,200;  -80,000;    0,000;63993,20000
 762,56;63987,200;  118,000;    0,000;63869,20000
 762,70;63913,200;  -67,000;    0,000;63980,20000
 762,85;63987,200;  320,000;    0,000;63667,20000
 762,99;63913,200;    1,000;    0,000;63912,20000
 763,14;63987,200;  -73,000;    0,000;64060,20000
 763,29;63913,200; -121,000;    0,000;64034,20000
 763,43;63987,200;   53,000;    0,000;63934,20000
 763,58;63913,200;   66,000;    0,000;63847,20000
 763,72;63987,200;  -81,000;    0,000;64068,20000
 763,87;63913,200;  -49,000;    0,000;63962,20000
 764,02;63987,200;  252,000;    0,000;63735,20000
 764,16;63913,200; -194,000;    0,000;64107,20000
 764,31;63987,200;  -58,000;    0,000;64045,20000
 764,45;63913,200;   55,000;    0,000;63858,20000
 764,60;63987,200;  396,000;    0,000;63591,20000
 764,74;63913,200; -132,000;    0,000;64045,20000
 764,89;63987,200; -134,000;    0,000;64121,20000
 765,04;63913,200;  -51,000;    0,000;63964,20000
 765,18;63987,200;  -16,000;    0,000;64003,20000
 765,33;63913,200;  -10,000;    0,000;63923,20000
 765,47;63987,200;  -49,000;    0,000;64036,20000
 765,62;63913,200;   -5,000;    0,000;63918,20000
 765,77;63987,200;  359,000;    0,000;63628,20000
 765,91;63913,200;  166,000;    0,000;63747,20000
 766,06;63987,200;  270,000;    0,000;63717,20000
 766,20;63913,200;   87,000;    0,000;63826,20000
 766,35;63987,200;  516,000;    0,000;63471,20000
 766,49;63913,200;  239,000;    0,000;63674,20000
 766,64;63987,200;  386,000;    0,000;63601,20000
 766,79;63913,200; -147,000;    0,000;64060,20000
 766,93;63987,200;  178,000;    0,000;63809,20000
 767,08;63913,200; -134,000;    0,000;64047,20000
 767,22;63987,200; -108,000;    0,000;64095,20000
 767,37;63913,200;  233,000;    0,000;63680,20000
 767,51;63987,200;  367,000;    0,000;63620,20000
 767,66;63913,200;   11,000;    0,000;63902,20000
 767,81;63987,200;  148,000;    0,000;63839,20000
 767,95;63913,200;  126,000;    0,000;63787,20000
 768,10;63987,200; -165,000;    0,000;64152,20000
 768,24;63913,200;   97,000;    0,000;63816,20000
 768,39;63987,200;  -66,000;    0,000;64053,20000
 768,53;63913,200; -224,000;    0,000;64137,20000
 768,68;63987,200;  108,000;    0,000;63879,20000
 768,83;63913,200;  107,000;    0,000;63806,20000
 768,97;63987,200;  175,000;    0,000;63812,20000
 769,12;63913,200; -323,000;    0,000;64236,20000
 769,26;63987,200;  331,000;    0,000;63656,20000
 769,41;63913,200; -104,000;    0,000;64017,20000
 769,55;63987,200;  188,000;    0,000;63799,20000
 769,70;63913,200;  325,000;    0,000;63588,20000
 769,84;63987,200;  231,000;    0,000;63756,20000
 769,99;63913,200;  101,000;    0,000;63812,20000
 770,14;63987,200;  263,000;    0,000;63724,20000
 770,28;63913,200; -276,000;    0,000;64189,20000
 770,43;63987,200;  175,000;    0,000;63812,20000
 770,57;63913,200; -153,000;    0,000;64066,20000
 770,72;63987,200;  291,000;    0,000;63696,20000
 770,86;63913,200; -177,000;    0,000;64090,20000
 771,01;63987,200;  127,000;    0,000;63860,20000
 771,15;63913,200;   25,000;    0,000;63888,20000
 771,30;63987,200;   98,000;    0,000;63889,20000
 771,44;63913,200; -391,000;    0,000;64304,20000
 771,59;63987,200; -238,000;    0,000;64225,20000
 771,74;63913,200; -213,000;    0,000;64126,20000
 771,88;63987,200; -185,000;    0,000;64172,20000
 772,03;63913,200; -115,000;    0,000;64028,20000
 772,17;63987,200;  161,000;    0,000;63826,20000
 772,32;63913,200;  -39,000;    0,000;63952,20000
 772,46;63987,200;  394,000;    0,000;63593,20000
 772,61;63913,200;   19,000;    0,000;63894,20000
 772,75;63987,200;   79,000;    0,000;63908,20000
 772,90;63913,200;  158,000;    0,000;63755,20000
 773,04;63987,200;  177,000;    0,000;63810,20000
 773,19;63913,200;    9,000;    0,000;63904,20000
 773,33;63987,200;  316,000;    0,000;63671,20000
 773,48;63913,200;   79,000;    0,000;63834,20000
 773,62;63987,200;  -40,000;    0,000;64027,20000
 773,77;63913,200; -136,000;    0,000;64049,20000
 773,92;63987,200;  529,000;    0,000;63458,20000
 774,06;63913,200;   48,000;    0,000;63865,20000
 774,21;63987,200;   38,000;    0,000;63949,20000
 774,35;63913,200;   42,000;    0,000;63871,20000
 774,50;63987,200; -185,000;    0,000;64172,20000
 774,64;63913,200;   42,000;    0,000;63871,20000
 774,79;63987,200;  317,000;    0,000;63670,20000
 774,93;63913,200;  705,000;    0,000;63208,20000
 775,08;62427,900;   72,000;    0,000;62355,90000
 775,22;62417,000; -209,000;    0,000;62626,00000
 775,37; 6466,300;   88,000;    0,000;6378,30000
 775,51; 4884,800;  158,000;    0,000;4726,80000
 775,66; 3677,800;  161,000;    0,000;3516,80000
 775,80; 3634,400;  166,000;    0,000;3468,40000
 775,95; 3090,600;  320,000;    0,000;2770,60000
 776,09; 2830,200;   64,000;    0,000;2766,20000
 776,24; 2401,700;  -68,000;    0,000;2469,70000
 776,38; 2512,800;   86,000;    0,000;2426,80000
 776,53; 2273,600;   36,000;    0,000;2237,60000
 776,67; 2037,600; -178,000;    0,000;2215,60000
 776,82; 2282,200;  215,000;    0,000;2067,20000
 776,96; 1842,700; -196,000;    0,000;2038,70000
 777,11; 2169,000;  264,000;    0,000;1905,00000
 777,25; 2281,700;  468,000;    0,000;1813,70000
 777,40; 2052,000;  408,000;    0,000;1644,00000
 777,54; 1516,300; -225,000;    0,000;1741,30000
 777,69; 1770,300;  169,000;    0,000;1601,30000
 777,83; 1367,900; -252,000;    0,000;1619,90000
 777,98; 1644,500;   25,000;    0,000;1619,50000
 778,12; 1751,400;  210,000;    0,000;1541,40000
 778,27; 1698,700;  148,000;    0,000;1550,70000
 778,41; 1182,700; -206,000;    0,000;1388,70000
 778,56; 1205,300; -125,000;    0,000;1330,30000
 778,70; 1246,800; -142,000;    0,000;1388,80000
 778,85; 1414,100;  172,000;    0,000;1242,10000
 778,99; 1361,100;  -14,000;    0,000;1375,10000
 779,14; 1504,800;   12,000;    0,000;1492,80000
 779,28; 1711,600;  217,000;    0,000;1494,60000
 779,43; 1456,700;  148,000;    0,000;1308,70000
 779,57; 1271,600;  -14,000;    0,000;1285,60000
 779,72; 1317,600;  110,000;    0,000;1207,60000
 779,86; 1149,700;  -90,000;    0,000;1239,70000
 780,01; 1145,600;   47,000;    0,000;1098,60000
 780,15;  985,700; -168,000;    0,000;1153,70000
 780,30; 1153,000;   40,000;    0,000;1113,00000
 780,44; 1138,500;   55,000;    0,000;1083,50000
 780,59; 1697,900;  566,000;    0,000;1131,90000
 780,73; 1146,900;  159,000;    0,000;987,90000
 780,88; 1089,600;  231,000;    0,000;858,60000
 781,02;  810,900; -300,000;    0,000;1110,90000
 781,17; 1004,000;   96,000;    0,000;908,00000
 781,31; 1057,100;  179,000;    0,000;878,10000
 781,46; 1358,800;  410,000;    0,000;948,80000
 781,60; 1062,400;  -41,000;    0,000;1103,40000
 781,75; 1018,500;   27,000;    0,000;991,50000
 781,89;  721,300; -206,000;    0,000;927,30000
 782,03; 1449,800;  600,000;    0,000;849,80000
 782,18;  761,200; -219,000;    0,000;980,20000
 782,32;  815,400;  -36,000;    0,000;851,40000
 782,47;  830,500;  -71,000;    0,000;901,50000
 782,61;  780,200;  -68,000;    0,000;848,20000
 782,76; 1073,800;  286,000;    0,000;787,80000
 782,90; 1058,200;  301,000;    0,000;757,20000
 783,05;  843,800;   46,000;    0,000;797,80000
 783,19;  738,200;  -73,000;    0,000;811,20000
 783,34;  812,100;    6,000;    0,000;806,10000
 783,48; 1022,900;  188,000;    0,000;834,90000
 783,63;  986,500;  204,000;    0,000;782,50000
 783,77;  980,800;  160,000;    0,000;820,80000
 783,92;  840,900;   95,000;    0,000;745,90000
 784,06;  856,300;   82,000;    0,000;774,30000
 784,20;  736,400;   -6,000;    0,000;742,40000
 784,35;  830,100;  165,000;    0,000;665,10000
 784,49;  750,700;  -40,000;    0,000;790,70000
 784,64;  960,500;  336,000;    0,000;624,50000
 784,78; 1035,800;  203,000;    0,000;832,80000
 784,93;  787,600;   50,000;    0,000;737,60000
 785,07;  861,300;   68,000;    0,000;793,30000
 785,22; 1202,400;  397,000;    0,000;805,40000
 785,36;  708,500;  -78,000;    0,000;786,50000
 785,50;  815,100;   32,000;    0,000;783,10000
 785,65;  503,500; -259,000;    0,000;762,50000
 785,79;  756,400;   91,000;    0,000;665,40000
 785,94;  894,800;  -86,000;    0,000;980,80000
 786,08; 1258,500;  274,000;    0,000;984,50000
 786,23;  960,800;  158,000;    0,000;802,80000
 786,37;  685,800;  -21,000;    0,000;706,80000
 786,52;  873,900;  -13,000;    0,000;886,90000
 786,66;  698,300;   16,000;    0,000;682,30000
 786,80;  878,500;   59,000;    0,000;819,50000
 786,95;  601,100; -140,000;    0,000;741,10000
 787,09;  552,800; -185,000;    0,000;737,80000
 787,24; 1061,600;  332,000;    0,000;729,60000
 787,38;  643,600;   10,000;    0,000;633,60000
 787,53; 1005,400;  248,000;    0,000;757,40000
 787,67;  804,200;   98,000;    0,000;706,20000
 787,82;  665,300;  -64,000;    0,000;729,30000
 787,96;  937,300;  218,000;    0,000;719,30000
 788,10;  773,700;   -8,000;    0,000;781,70000
 788,25; 1585,400;  -32,000;    0,000;1617,40000
 788,39; 2115,400;  192,000;    0,000;1923,40000
 788,54; 1639,300;  344,000;    0,000;1295,30000
 788,68; 1252,600;  370,000;    0,000;882,60000
 788,83;  766,100;   40,000;    0,000;726,10000
 788,97;  588,700; -153,000;    0,000;741,70000
 789,11;  731,700;   58,000;    0,000;673,70000
 789,26;  644,400;  -11,000;    0,000;655,40000
 789,40;  626,000;  -15,000;    0,000;641,00000
 789,55;  720,600;   51,000;    0,000;669,60000
 789,69;  415,400; -215,000;    0,000;630,40000
 789,83;  538,700;    0,000;    0,000;538,70000
 789,98;  786,900;  116,000;    0,000;670,90000
 790,12;  825,800;   53,000;    0,000;772,80000
 790,27;  821,100;   59,000;    0,000;762,10000
 790,41; 1008,500;  229,000;    0,000;779,50000
 790,56;  806,300;    2,000;    0,000;804,30000
 790,70; 1186,400;  421,000;    0,000;765,40000
 790,84; 1332,400;  482,000;    0,000;850,40000
 790,99;  657,900; -280,000;    0,000;937,90000
 791,13;  835,900;   50,000;    0,000;785,90000
 791,28; 1175,900;  324,000;    0,000;851,90000
 791,42;  962,100;   20,000;    0,000;942,10000
 791,56;  907,700;  -16,000;    0,000;923,70000
 791,71; 1029,200;   60,000;    0,000;969,20000
 791,85;  914,400;  -16,000;    0,000;930,40000
 792,00;  829,300; -204,000;    0,000;1033,30000
 792,14; 1361,600;  101,000;    0,000;1260,60000
 792,28; 1379,100;  124,000;    0,000;1255,10000
 792,43; 1553,900;  171,000;    0,000;1382,90000
 792,57; 1625,700;   46,000;    0,000;1579,70000
 792,72; 1844,500;  -29,000;    0,000;1873,50000
 792,86; 2110,000;  -60,000;    0,000;2170,00000
 793,00; 2866,700;  171,000;    0,000;2695,70000
 793,15; 3382,500;   31,000;    0,000;3351,50000
 793,29; 4707,400;  194,000;    0,000;4513,40000
 793,44; 6535,200;   55,000;    0,000;6480,20000
 793,58;10820,000;   47,000;    0,000;10773,00000
 793,72;25118,100; -321,000;    0,000;25439,10000
 793,87;63987,200;  368,000;    0,000;63619,20000
 794,01;63913,200; -121,000;    0,000;64034,20000
 794,16;63987,200;  -20,000;    0,000;64007,20000
 794,30;63913,200;  191,000;    0,000;63722,20000
 794,44;63987,200; -128,000;    0,000;64115,20000
 794,59;63913,200;    8,000;    0,000;63905,20000
 794,73;63987,200;  -36,000;    0,000;64023,20000
 794,87;63913,200;  -32,000;    0,000;63945,20000
 795,02;63987,200; -106,000;    0,000;64093,20000
 795,16;63913,200;  380,000;    0,000;63533,20000
 795,31;63987,200;   99,000;    0,000;63888,20000
 795,45;63913,200;  -84,000;    0,000;63997,20000
 795,59;63987,200;  -75,000;    0,000;64062,20000
 795,74;63913,200;   31,000;    0,000;63882,20000
 795,88;63987,200;  109,000;    0,000;63878,20000
 796,02;63913,200; -201,000;    0,000;64114,20000
 796,17; 9174,800;   55,000;    0,000;9119,80000
 796,31;23835,800;  -12,000;    0,000;23847,80000
 796,46; 4222,000;  192,000;    0,000;4030,00000
 796,60; 5187,100;  388,000;    0,000;4799,10000
 796,74; 3066,500; -162,000;    0,000;3228,50000
 796,89; 3511,500;  117,000;    0,000;3394,50000
 797,03; 2770,900;  109,000;    0,000;2661,90000
 797,17; 2903,900;   32,000;    0,000;2871,90000
 797,32; 2406,300;    5,000;    0,000;2401,30000
 797,46; 2583,400;  207,000;    0,000;2376,40000
 797,61; 2151,600;   -3,000;    0,000;2154,60000
 797,75; 2464,600;  140,000;    0,000;2324,60000
 797,89; 2310,900;  209,000;    0,000;2101,90000
 798,04; 2290,400;    4,000;    0,000;2286,40000
 798,18; 2165,900;   28,000;    0,000;2137,90000
 798,32; 2324,600;  -92,000;    0,000;2416,60000
 798,47; 2065,700; -295,000;    0,000;2360,70000
 798,61; 2861,800;  142,000;    0,000;2719,80000
 798,75; 2818,200;   59,000;    0,000;2759,20000
 798,90; 3099,700; -244,000;    0,000;3343,70000
 799,04; 3829,700;   87,000;    0,000;3742,70000
 799,18; 5000,500;   90,000;    0,000;4910,50000
 799,33; 6109,500; -202,000;    0,000;6311,50000
 799,47;11901,400;   97,000;    0,000;11804,40000
 799,62;45580,300;  -39,000;    0,000;45619,30000
 799,76;63913,200;  179,000;    0,000;63734,20000
 799,90;63987,200;  216,000;    0,000;63771,20000
 800,05;63913,200;   17,000;    0,000;63896,20000
 800,19;63987,200;   27,000;    0,000;63960,20000
 800,33;63913,200;  -70,000;    0,000;63983,20000
 800,48;63987,200;  230,000;    0,000;63757,20000
 800,62;63913,200;  638,000;    0,000;63275,20000
 800,76;63987,200;  195,000;    0,000;63792,20000
 800,91;63913,200; -239,000;    0,000;64152,20000
 801,05;63987,200;  112,000;    0,000;63875,20000
 801,19;63913,200;  -67,000;    0,000;63980,20000
 801,34;63987,200;  234,000;    0,000;63753,20000
 801,48;63913,200;  -43,000;    0,000;63956,20000
 801,62;63987,200;  -13,000;    0,000;64000,20000
 801,77;63913,200;  178,000;    0,000;63735,20000
 801,91;63987,200;  -47,000;    0,000;64034,20000
 802,05;63913,200;  253,000;    0,000;63660,20000
 802,20;63987,200;  215,000;    0,000;63772,20000
 802,34;63913,200; -187,000;    0,000;64100,20000
 802,48;63987,200;    8,000;    0,000;63979,20000
 802,63;63913,200;  -30,000;    0,000;63943,20000
 802,77;63987,200;  129,000;    0,000;63858,20000
 802,91;63913,200; -103,000;    0,000;64016,20000
 803,06;63987,200;  123,000;    0,000;63864,20000
 803,20;63913,200; -184,000;    0,000;64097,20000
 803,34; 6957,500;  218,000;    0,000;6739,50000
 803,49;29503,500;  -90,000;    0,000;29593,50000
 803,63; 4401,100;  -47,000;    0,000;4448,10000
 803,77; 5342,100;  -51,000;    0,000;5393,10000
 803,92; 3817,500;  131,000;    0,000;3686,50000
 804,06; 3781,900;  -57,000;    0,000;3838,90000
 804,20; 2900,800;   56,000;    0,000;2844,80000
 804,35; 3286,300;   74,000;    0,000;3212,30000
 804,49; 2958,400; -119,000;    0,000;3077,40000
 804,63; 3232,200;  -71,000;    0,000;3303,20000
 804,77; 2703,700;  232,000;    0,000;2471,70000
 804,92; 2349,400;   40,000;    0,000;2309,40000
 805,06; 1826,500; -198,000;    0,000;2024,50000
 805,20; 2026,900;  -10,000;    0,000;2036,90000
 805,35; 2059,400;  139,000;    0,000;1920,40000
 805,49; 2058,300;   80,000;    0,000;1978,30000
 805,63; 1812,600;   95,000;    0,000;1717,60000
 805,78; 1937,400;  -27,000;    0,000;1964,40000
 805,92; 2554,100;  710,000;    0,000;1844,10000
 806,06; 1671,200;  -99,000;    0,000;1770,20000
 806,21; 2001,400;  315,000;    0,000;1686,40000
 806,35; 1956,000;  181,000;    0,000;1775,00000
 806,49; 1575,900; -207,000;    0,000;1782,90000
 806,63; 1971,200;   45,000;    0,000;1926,20000
 806,78; 2477,100;  539,000;    0,000;1938,10000
 806,92; 1857,400;   -9,000;    0,000;1866,40000
 807,06; 2036,400;   47,000;    0,000;1989,40000
 807,21; 2016,400; -150,000;    0,000;2166,40000
 807,35; 2155,700;   55,000;    0,000;2100,70000
 807,49; 2217,000;  -95,000;    0,000;2312,00000
 807,64; 2537,100;   32,000;    0,000;2505,10000
 807,78; 2628,600;  -95,000;    0,000;2723,60000
 807,92; 2770,600;  -68,000;    0,000;2838,60000
 808,06; 3165,600; -103,000;    0,000;3268,60000
 808,21; 3633,100;  -15,000;    0,000;3648,10000
 808,35; 3970,800;   -6,000;    0,000;3976,80000
 808,49; 4466,600; -111,000;    0,000;4577,60000
 808,64; 5939,800;   -2,000;    0,000;5941,80000
 808,78; 7230,500;   47,000;    0,000;7183,50000
 808,92; 9224,800; -298,000;    0,000;9522,80000
 809,06;12496,800; -112,000;    0,000;12608,80000
 809,21;24197,000; -158,000;    0,000;24355,00000
 809,35;63987,200;  196,000;    0,000;63791,20000
 809,49;63913,200;  -21,000;    0,000;63934,20000
 809,64;63987,200;  -94,000;    0,000;64081,20000
 809,78;63913,200; -162,000;    0,000;64075,20000
 809,92;63987,200;   72,000;    0,000;63915,20000
 810,06;63913,200; -282,000;    0,000;64195,20000
 810,21;63987,200;  -40,000;    0,000;64027,20000
 810,35;63913,200;  -15,000;    0,000;63928,20000
 810,49;63987,200;  -42,000;    0,000;64029,20000
 810,63;63913,200;  -10,000;    0,000;63923,20000
 810,78;63987,200;  228,000;    0,000;63759,20000
 810,92;63913,200;   -6,000;    0,000;63919,20000
 811,06;63987,200; -241,000;    0,000;64228,20000
 811,21;63913,200;   73,000;    0,000;63840,20000
 811,35;63987,200;   50,000;    0,000;63937,20000
 811,49;63913,200; -110,000;    0,000;64023,20000
 811,63;63987,200;  -38,000;    0,000;64025,20000
 811,78;63913,200;  -49,000;    0,000;63962,20000
 811,92;63987,200; -209,000;    0,000;64196,20000
 812,06;63913,200;   39,000;    0,000;63874,20000
 812,20;63987,200;  172,000;    0,000;63815,20000
 812,35;63913,200;  237,000;    0,000;63676,20000
 812,49;63987,200;   24,000;    0,000;63963,20000
 812,63;63913,200; -133,000;    0,000;64046,20000
 812,77;63987,200;  238,000;    0,000;63749,20000
 812,92;63913,200;   62,000;    0,000;63851,20000
 813,06;63987,200;  -19,000;    0,000;64006,20000
 813,20;63913,200;  -40,000;    0,000;63953,20000
 813,34;63987,200;  312,000;    0,000;63675,20000
 813,49;63913,200;  -63,000;    0,000;63976,20000
 813,63;63987,200;  130,000;    0,000;63857,20000
 813,77;63913,200;   22,000;    0,000;63891,20000
 813,91;63987,200;  139,000;    0,000;63848,20000
 814,06;63913,200;   40,000;    0,000;63873,20000
 814,20;63987,200;  -25,000;    0,000;64012,20000
 814,34;63913,200;  189,000;    0,000;63724,20000
 814,48;63987,200;  -62,000;    0,000;64049,20000
 814,63;63913,200;  241,000;    0,000;63672,20000
 814,77;63987,200;   41,000;    0,000;63946,20000
 814,91;63913,200; -103,000;    0,000;64016,20000
 815,05;63987,200;  167,000;    0,000;63820,20000
 815,20;63913,200;   69,000;    0,000;63844,20000
 815,34;63987,200;  221,000;    0,000;63766,20000
 815,48;63913,200;  -46,000;    0,000;63959,20000
 815,62;63987,200;   13,000;    0,000;63974,20000
 815,77;63913,200;   43,000;    0,000;63870,20000
 815,91;14802,000;  249,000;    0,000;14553,00000
 816,05;63913,200;  -74,000;    0,000;63987,20000
 816,19; 4774,100; -236,000;    0,000;5010,10000
 816,33;63913,200;  -74,000;    0,000;63987,20000
 816,48; 4544,000;  236,000;    0,000;4308,00000
 816,62;24004,400;  172,000;    0,000;23832,40000
 816,76; 4648,600; -108,000;    0,000;4756,60000
 816,90; 7332,200;  -50,000;    0,000;7382,20000
 817,05; 6753,800;  116,000;    0,000;6637,80000
 817,19;12942,800;  114,000;    0,000;12828,80000
 817,33;46243,200;    7,000;    0,000;46236,20000
 817,47;63913,200; -242,000;    0,000;64155,20000
 817,62;63987,200;   76,000;    0,000;63911,20000
 817,76;63913,200;  114,000;    0,000;63799,20000
 817,90;63987,200;   78,000;    0,000;63909,20000
 818,04;63913,200;  243,000;    0,000;63670,20000
 818,18;63987,200;  -76,000;    0,000;64063,20000
 818,33;63913,200;  -64,000;    0,000;63977,20000
 818,47;63987,200;  170,000;    0,000;63817,20000
 818,61;63913,200;  281,000;    0,000;63632,20000
 818,75;63987,200;  206,000;    0,000;63781,20000
 818,89;63913,200;  162,000;    0,000;63751,20000
 819,04;63987,200;  -19,000;    0,000;64006,20000
 819,18;63913,200; -133,000;    0,000;64046,20000
 819,32;63987,200; -139,000;    0,000;64126,20000
 819,46;63913,200;  503,000;    0,000;63410,20000
 819,61;63987,200; -204,000;    0,000;64191,20000
 819,75;63913,200; -156,000;    0,000;64069,20000
 819,89;63987,200;  236,000;    0,000;63751,20000
 820,03;63913,200; -282,000;    0,000;64195,20000
 820,17;63987,200;    2,000;    0,000;63985,20000
 820,32;63913,200; -122,000;    0,000;64035,20000
 820,46;63987,200;  363,000;    0,000;63624,20000
 820,60;63147,100;  -66,000;    0,000;63213,10000
 820,74;21156,800;  336,000;    0,000;20820,80000
 820,88; 6563,400; -163,000;    0,000;6726,40000
 821,03; 5206,500;  510,000;    0,000;4696,50000
 821,17; 4006,600; -185,000;    0,000;4191,60000
 821,31; 4352,700;  924,000;    0,000;3428,70000
 821,45; 3009,200; -206,000;    0,000;3215,20000
 821,59; 2655,900; -201,000;    0,000;2856,90000
 821,74; 2615,800;  -11,000;    0,000;2626,80000
 821,88; 2455,100;  200,000;    0,000;2255,10000
 822,02; 2485,700;  172,000;    0,000;2313,70000
 822,16; 2395,100;  310,000;    0,000;2085,10000
 822,30; 2075,400;   -3,000;    0,000;2078,40000
 822,44; 1699,000; -287,000;    0,000;1986,00000
 822,59; 2146,300;  122,000;    0,000;2024,30000
 822,73; 2091,400;  301,000;    0,000;1790,40000
 822,87; 1883,300;  173,000;    0,000;1710,30000
 823,01; 2149,400;  401,000;    0,000;1748,40000
 823,15; 1544,000; -158,000;    0,000;1702,00000
 823,30; 1465,300; -104,000;    0,000;1569,30000
 823,44; 1503,300;  -78,000;    0,000;1581,30000
 823,58; 1597,400;   39,000;    0,000;1558,40000
 823,72; 1710,200;   84,000;    0,000;1626,20000
 823,86; 1514,200;   -4,000;    0,000;1518,20000
 824,00; 1685,800;   66,000;    0,000;1619,80000
 824,15; 1677,500;   86,000;    0,000;1591,50000
 824,29; 1977,200;  107,000;    0,000;1870,20000
 824,43; 2027,300;  239,000;    0,000;1788,30000
 824,57; 2251,100;  160,000;    0,000;2091,10000
 824,71; 2578,900;   58,000;    0,000;2520,90000
 824,85; 2968,300;  -83,000;    0,000;3051,30000
 825,00; 4421,500;  440,000;    0,000;3981,50000
 825,14; 5320,000;  235,000;    0,000;5085,00000
 825,28;10184,700;  405,000;    0,000;9779,70000
 825,42;31758,700;  -87,000;    0,000;31845,70000
 825,56;63987,200;  179,000;    0,000;63808,20000
 825,70;63913,200;  -36,000;    0,000;63949,20000
 825,85;63987,200;  106,000;    0,000;63881,20000
 825,99;63913,200;  300,000;    0,000;63613,20000
 826,13;63987,200;    5,000;    0,000;63982,20000
 826,27;63913,200;  195,000;    0,000;63718,20000
 826,41;63987,200;  395,000;    0,000;63592,20000
 826,55;63913,200;  -77,000;    0,000;63990,20000
 826,70;63987,200;  -93,000;    0,000;64080,20000
 826,84;63913,200;   44,000;    0,000;63869,20000
 826,98;11120,700;    8,000;    0,000;11112,70000
 827,12;21132,600;  225,000;    0,000;20907,60000
 827,26; 4586,700;  384,000;    0,000;4202,70000
 827,40; 4353,800; -425,000;    0,000;4778,80000
 827,55; 2817,100; -261,000;    0,000;3078,10000
 827,69; 2896,800; -366,000;    0,000;3262,80000
 827,83; 2491,900;   83,000;    0,000;2408,90000
 827,97; 2563,000;   -2,000;    0,000;2565,00000
 828,11; 1773,400; -358,000;    0,000;2131,40000
 828,25; 2123,700;   13,000;    0,000;2110,70000
 828,39; 1806,200;   22,000;    0,000;1784,20000
 828,54; 1814,000;   61,000;    0,000;1753,00000
 828,68; 1900,500;  318,000;    0,000;1582,50000
 828,82; 1780,300;  221,000;    0,000;1559,30000
 828,96; 1469,500;  125,000;    0,000;1344,50000
 829,10; 1650,600;  223,000;    0,000;1427,60000
 829,24; 1598,300;  335,000;    0,000;1263,30000
 829,38; 1272,600; -163,000;    0,000;1435,60000
 829,53; 1212,500;  -23,000;    0,000;1235,50000
 829,67; 1265,600;   14,000;    0,000;1251,60000
 829,81; 1269,600;  114,000;    0,000;1155,60000
 829,95; 1245,900;  119,000;    0,000;1126,90000
 830,09; 1114,800;   37,000;    0,000;1077,80000
 830,23; 1182,600;   90,000;    0,000;1092,60000
 830,37; 1026,400;   62,000;    0,000;964,40000
 830,51; 1129,300;  107,000;    0,000;1022,30000
 830,66; 1114,100;  164,000;    0,000;950,10000
 830,80;  826,300; -306,000;    0,000;1132,30000
 830,94; 1009,700; -162,000;    0,000;1171,70000
 831,08; 1302,900;  257,000;    0,000;1045,90000
 831,22; 1010,800;  174,000;    0,000;836,80000
 831,36; 1172,800;  246,000;    0,000;926,80000
 831,50;  856,600;   22,000;    0,000;834,60000
 831,64;  779,600;  -41,000;    0,000;820,60000
 831,79; 1055,800;  225,000;    0,000;830,80000
 831,93; 1050,300;  131,000;    0,000;919,30000
 832,07;  889,900;   18,000;    0,000;871,90000
 832,21; 1039,300;  113,000;    0,000;926,30000
 832,35; 1336,200;  476,000;    0,000;860,20000
 832,49;  658,700; -168,000;    0,000;826,70000
 832,63;  744,900;  -60,000;    0,000;804,90000
 832,77;  825,700;  -23,000;    0,000;848,70000
 832,91; 1039,000;  181,000;    0,000;858,00000
 833,06;  906,200;   14,000;    0,000;892,20000
 833,20;  911,200;  117,000;    0,000;794,20000
 833,34;  718,200;  -72,000;    0,000;790,20000
 833,48; 1204,900;  315,000;    0,000;889,90000
 833,62;  745,900;  -46,000;    0,000;791,90000
 833,76;  858,700;  140,000;    0,000;718,70000
 833,90;  532,900; -264,000;    0,000;796,90000
 834,04;  781,200;  107,000;    0,000;674,20000
 834,18;  997,600;  221,000;    0,000;776,60000
 834,33;  714,100;   -6,000;    0,000;720,10000
 834,47;  915,100;  196,000;    0,000;719,10000
 834,61; 1047,700;  241,000;    0,000;806,70000
 834,75;  789,200;    1,000;    0,000;788,20000
 834,89;  607,200; -231,000;    0,000;838,20000
 835,03;  589,100; -271,000;    0,000;860,10000
 835,17;  797,500;  107,000;    0,000;690,50000
 835,31;  573,300; -120,000;    0,000;693,30000
 835,45;  515,100; -267,000;    0,000;782,10000
 835,59;  648,000; -110,000;    0,000;758,00000
 835,73;  738,000;   19,000;    0,000;719,00000
 835,88; 1049,300;  289,000;    0,000;760,30000
 836,02; 1075,100;  315,000;    0,000;760,10000
 836,16;  983,500;  294,000;    0,000;689,50000
 836,30;  961,900;  226,000;    0,000;735,90000
 836,44;  735,200;   -7,000;    0,000;742,20000
 836,58;  886,700;   83,000;    0,000;803,70000
 836,72;  449,500; -269,000;    0,000;718,50000
 836,86;  709,300;  -14,000;    0,000;723,30000
 837,00;  628,800; -161,000;    0,000;789,80000
 837,14;  855,300;   83,000;    0,000;772,30000
 837,28; 1183,100;  297,000;    0,000;886,10000
 837,42;  992,800;   32,000;    0,000;960,80000
 837,57;  679,700; -329,000;    0,000;1008,70000
 837,71; 1086,100; -102,000;    0,000;1188,10000
 837,85; 1269,500;   91,000;    0,000;1178,50000
 837,99; 1206,900;  107,000;    0,000;1099,90000
 838,13; 1385,200;  296,000;    0,000;1089,20000
 838,27; 1106,300; -100,000;    0,000;1206,30000
 838,41; 1270,500; -239,000;    0,000;1509,50000
 838,55; 1836,200;   66,000;    0,000;1770,20000
 838,69; 1728,300; -259,000;    0,000;1987,30000
 838,83; 2132,300;  -91,000;    0,000;2223,30000
 838,97; 2649,000;  -72,000;    0,000;2721,00000
 839,11; 3387,900;  167,000;    0,000;3220,90000
 839,25; 4433,300;  -11,000;    0,000;4444,30000
 839,39; 5936,000;   57,000;    0,000;5879,00000
 839,54; 8030,300;  -82,000;    0,000;8112,30000
 839,68;17219,800;  151,000;    0,000;17068,80000
 839,82;62656,200; -119,000;    0,000;62775,20000
 839,96;63987,200;  -35,000;    0,000;64022,20000
 840,10;63913,200; -280,000;    0,000;64193,20000
 840,24;63987,200;  118,000;    0,000;63869,20000
 840,38;63913,200; -145,000;    0,000;64058,20000
 840,52;63987,200;   29,000;    0,000;63958,20000
 840,66;63913,200;  -24,000;    0,000;63937,20000
 840,80;63987,200; -123,000;    0,000;64110,20000
 840,94;63913,200;   55,000;    0,000;63858,20000
 841,08;63987,200;  130,000;    0,000;63857,20000
 841,22;63913,200;  102,000;    0,000;63811,20000
 841,36;63987,200;  157,000;    0,000;63830,20000
 841,50;63913,200;  -14,000;    0,000;63927,20000
 841,64;63987,200;   28,000;    0,000;63959,20000
 841,78;63913,200;    1,000;    0,000;63912,20000
 841,92;63987,200;  178,000;    0,000;63809,20000
 842,06;63913,200;  134,000;    0,000;63779,20000
 842,20;63987,200;   32,000;    0,000;63955,20000
 842,35;63913,200;  -96,000;    0,000;64009,20000
 842,49;63987,200;  351,000;    0,000;63636,20000
 842,63;63913,200;  -35,000;    0,000;63948,20000
 842,77;63987,200;  -96,000;    0,000;64083,20000
 842,91;63913,200;  180,000;    0,000;63733,20000
 843,05;63987,200;  133,000;    0,000;63854,20000
 843,19;63913,200; -149,000;    0,000;64062,20000
 843,33;63987,200;  241,000;    0,000;63746,20000
 843,47;63913,200;  -78,000;    0,000;63991,20000
 843,61;63987,200;   75,000;    0,000;63912,20000
 843,75;63913,200;  -82,000;    0,000;63995,20000
 843,89;63987,200;  120,000;    0,000;63867,20000
 844,03;63913,200; -146,000;    0,000;64059,20000
 844,17;63987,200; -124,000;    0,000;64111,20000
 844,31;63913,200;   35,000;    0,000;63878,20000
 844,45;63987,200;   52,000;    0,000;63935,20000
 844,59;11390,000; -204,000;    0,000;11594,00000
 844,73;11438,500;  -16,000;    0,000;11454,50000
 844,87; 4334,400;    8,000;    0,000;4326,40000
 845,01; 4290,600;   14,000;    0,000;4276,60000
 845,15; 2879,000; -334,000;    0,000;3213,00000
 845,29; 3366,200;  179,000;    0,000;3187,20000
 845,43; 2701,800;  238,000;    0,000;2463,80000
 845,57; 2481,200; -117,000;    0,000;2598,20000
 845,71; 2399,600;  193,000;    0,000;2206,60000
 845,85; 2081,700;  -94,000;    0,000;2175,70000
 845,99; 1954,000;   31,000;    0,000;1923,00000
 846,13; 1938,600;   42,000;    0,000;1896,60000
 846,27; 1894,200;  243,000;    0,000;1651,20000
 846,41; 1758,800;   67,000;    0,000;1691,80000
 846,55; 1749,500;  227,000;    0,000;1522,50000
 846,69; 1612,600;  146,000;    0,000;1466,60000
 846,83; 1270,600; -177,000;    0,000;1447,60000
 846,97; 1394,700;   36,000;    0,000;1358,70000
 847,11; 1423,400;  133,000;    0,000;1290,40000
 847,25; 1451,000;  156,000;    0,000;1295,00000
 847,39; 1184,100;  -57,000;    0,000;1241,10000
 847,53; 1522,400;  328,000;    0,000;1194,40000
 847,67; 1061,400; -112,000;    0,000;1173,40000
 847,81; 1075,200;  -19,000;    0,000;1094,20000
 847,95;  955,100; -116,000;    0,000;1071,10000
 848,09;  969,800;  -68,000;    0,000;1037,80000
 848,23;  824,900; -318,000;    0,000;1142,90000
 848,37;  894,000; -155,000;    0,000;1049,00000
 848,51;  989,400;  -80,000;    0,000;1069,40000
 848,65; 1029,000;   -5,000;    0,000;1034,00000
 848,79; 1108,200;  166,000;    0,000;942,20000
 848,93; 1051,700;   54,000;    0,000;997,70000
 849,07;  812,000;  -40,000;    0,000;852,00000
 849,21; 1178,800;  245,000;    0,000;933,80000
 849,35;  917,300;  -95,000;    0,000;1012,30000
 849,49;  985,400;   66,000;    0,000;919,40000
 849,63;  905,100;  -91,000;    0,000;996,10000
 849,77;  935,000;  -53,000;    0,000;988,00000
 849,91; 1293,200;  164,000;    0,000;1129,20000
 850,05; 1421,000;  317,000;    0,000;1104,00000
 850,19; 1342,200;    7,000;    0,000;1335,20000
 850,33; 1788,600;  409,000;    0,000;1379,60000
 850,47; 1833,400;  151,000;    0,000;1682,40000
 850,61; 2049,400;  -77,000;    0,000;2126,40000
 850,75; 2629,200;  100,000;    0,000;2529,20000
 850,89; 4213,100;  664,000;    0,000;3549,10000
 851,03; 8226,500;   76,000;    0,000;8150,50000
 851,17;41107,200;   -2,000;    0,000;41109,20000
 851,31;63913,200;   15,000;    0,000;63898,20000
 851,45;63987,200;  -89,000;    0,000;64076,20000
 851,59;63913,200;   -4,000;    0,000;63917,20000
 851,73;63987,200;   47,000;    0,000;63940,20000
 851,87;63913,200;  175,000;    0,000;63738,20000
 852,01;60935,700;  -48,000;    0,000;60983,70000
 852,15;20642,800;   59,000;    0,000;20583,80000
 852,29; 5565,000;   65,000;    0,000;5500,00000
 852,43; 4792,800;   23,000;    0,000;4769,80000
 852,57; 3420,600;  208,000;    0,000;3212,60000
 852,71; 3197,100;   80,000;    0,000;3117,10000
 852,85; 2209,500; -152,000;    0,000;2361,50000
 852,99; 2452,400;   58,000;    0,000;2394,40000
 853,13; 1860,300;  -50,000;    0,000;1910,30000
 853,26; 1840,800;  -20,000;    0,000;1860,80000
 853,40; 1510,200;  -25,000;    0,000;1535,20000
 853,54; 1777,200;   50,000;    0,000;1727,20000
 853,68; 1470,400;  -42,000;    0,000;1512,40000
 853,82; 1483,000;   21,000;    0,000;1462,00000
 853,96; 1420,500;  221,000;    0,000;1199,50000
 854,10; 1307,100;   51,000;    0,000;1256,10000
 854,24; 1108,000;  -28,000;    0,000;1136,00000
 854,38; 1331,400;  239,000;    0,000;1092,40000
 854,52; 1001,200;   53,000;    0,000;948,20000
 854,66;  910,400; -206,000;    0,000;1116,40000
 854,80;  785,000; -138,000;    0,000;923,00000
 854,94;  925,500;  -56,000;    0,000;981,50000
 855,08;  768,700; -118,000;    0,000;886,70000
 855,22; 2274,100; 1328,000;    0,000;946,10000
 855,36;  937,400;   52,000;    0,000;885,40000
 855,50; 1028,300;  183,000;    0,000;845,30000
 855,64;  839,400;  -11,000;    0,000;850,40000
 855,78;  568,500; -271,000;    0,000;839,50000
 855,92;  736,100;   89,000;    0,000;647,10000
 856,05;  609,800; -146,000;    0,000;755,80000
 856,19;  956,200;  284,000;    0,000;672,20000
 856,33;  790,900;   20,000;    0,000;770,90000
 856,47;  719,400;   47,000;    0,000;672,40000
 856,61;  819,900;  116,000;    0,000;703,90000
 856,75;  639,800;   84,000;    0,000;555,80000
 856,89;  524,000; -126,000;    0,000;650,00000
 857,03;  474,100; -135,000;    0,000;609,10000
 857,17;  768,500;   89,000;    0,000;679,50000
 857,31;  663,200;   91,000;    0,000;572,20000
 857,45;  672,700;   42,000;    0,000;630,70000
 857,59;  563,900;   24,000;    0,000;539,90000
 857,73;  822,400;  306,000;    0,000;516,40000
 857,87;  506,800;  -17,000;    0,000;523,80000
 858,00;  809,500;  265,000;    0,000;544,50000
 858,14;  563,700;   30,000;    0,000;533,70000
 858,28;  468,100;  -82,000;    0,000;550,10000
 858,42;  478,900;  -22,000;    0,000;500,90000
 858,56;  516,400;    1,000;    0,000;515,40000

